x_original,nm,cm^-1,intensity
950.00,965.41,2375.53,17378.00
949.95,965.36,2374.96,17017.00
949.90,965.30,2374.39,19809.00
949.84,965.25,2373.82,18731.00
949.79,965.20,2373.25,16028.00
949.74,965.14,2372.68,19061.00
949.69,965.09,2372.12,13559.00
949.64,965.04,2371.55,25330.00
949.58,964.98,2370.98,23565.00
949.53,964.93,2370.41,16511.00
949.48,964.88,2369.84,18601.00
949.43,964.82,2369.27,17990.00
949.37,964.77,2368.70,18688.00
949.32,964.72,2368.13,16902.00
949.27,964.66,2367.56,15860.00
949.22,964.61,2366.99,15139.00
949.17,964.56,2366.42,18965.00
949.11,964.51,2365.85,17347.00
949.06,964.45,2365.28,17628.00
949.01,964.40,2364.71,15066.00
948.96,964.35,2364.14,18866.00
948.91,964.29,2363.57,20841.00
948.85,964.24,2362.99,19384.00
948.80,964.19,2362.42,16373.00
948.75,964.13,2361.85,17286.00
948.70,964.08,2361.28,17924.00
948.65,964.03,2360.71,21182.00
948.59,963.97,2360.14,14986.00
948.54,963.92,2359.57,18281.00
948.49,963.87,2359.00,22439.00
948.44,963.81,2358.43,20592.00
948.38,963.76,2357.86,20958.00
948.33,963.71,2357.29,17803.00
948.28,963.65,2356.72,17125.00
948.23,963.60,2356.14,21979.00
948.18,963.55,2355.57,19956.00
948.12,963.50,2355.00,17003.00
948.07,963.44,2354.43,23384.00
948.02,963.39,2353.86,17400.00
947.97,963.34,2353.29,17013.00
947.92,963.28,2352.71,17130.00
947.86,963.23,2352.14,18363.00
947.81,963.18,2351.57,18519.00
947.76,963.12,2351.00,18514.00
947.71,963.07,2350.43,18703.00
947.66,963.02,2349.86,20541.00
947.60,962.96,2349.28,18909.00
947.55,962.91,2348.71,21599.00
947.50,962.86,2348.14,20716.00
947.45,962.80,2347.57,20811.00
947.40,962.75,2347.00,21854.00
947.34,962.70,2346.42,18262.00
947.29,962.64,2345.85,15986.00
947.24,962.59,2345.28,18703.00
947.19,962.54,2344.71,20133.00
947.13,962.48,2344.13,19855.00
947.08,962.43,2343.56,22577.00
947.03,962.38,2342.99,17863.00
946.98,962.33,2342.41,19872.00
946.93,962.27,2341.84,20478.00
946.87,962.22,2341.27,19527.00
946.82,962.17,2340.70,18965.00
946.77,962.11,2340.12,17449.00
946.72,962.06,2339.55,18055.00
946.67,962.01,2338.98,21412.00
946.61,961.95,2338.40,22698.00
946.56,961.90,2337.83,18500.00
946.51,961.85,2337.26,19593.00
946.46,961.79,2336.68,22363.00
946.41,961.74,2336.11,19982.00
946.35,961.69,2335.54,22036.00
946.30,961.63,2334.96,17703.00
946.25,961.58,2334.39,21354.00
946.20,961.53,2333.82,17546.00
946.14,961.47,2333.24,20093.00
946.09,961.42,2332.67,25580.00
946.04,961.37,2332.09,23081.00
945.99,961.31,2331.52,22244.00
945.94,961.26,2330.95,19649.00
945.88,961.21,2330.37,20163.00
945.83,961.16,2329.80,19232.00
945.78,961.10,2329.22,22194.00
945.73,961.05,2328.65,21914.00
945.68,961.00,2328.08,19827.00
945.62,960.94,2327.50,19969.00
945.57,960.89,2326.93,19536.00
945.52,960.84,2326.35,22505.00
945.47,960.78,2325.78,27335.00
945.42,960.73,2325.20,19809.00
945.36,960.68,2324.63,20320.00
945.31,960.62,2324.05,19862.00
945.26,960.57,2323.48,21212.00
945.21,960.52,2322.90,17474.00
945.15,960.46,2322.33,22559.00
945.10,960.41,2321.75,16910.00
945.05,960.36,2321.18,19510.00
945.00,960.30,2320.60,22765.00
944.95,960.25,2320.03,22118.00
944.89,960.20,2319.45,15392.00
944.84,960.15,2318.88,23340.00
944.79,960.09,2318.30,18710.00
944.74,960.04,2317.73,19848.00
944.69,959.99,2317.15,21594.00
944.63,959.93,2316.57,18737.00
944.58,959.88,2316.00,20423.00
944.53,959.83,2315.42,31283.00
944.48,959.77,2314.85,18208.00
944.43,959.72,2314.27,22586.00
944.37,959.67,2313.70,24744.00
944.32,959.61,2313.12,22267.00
944.27,959.56,2312.54,25352.00
944.22,959.51,2311.97,20394.00
944.17,959.45,2311.39,22828.00
944.11,959.40,2310.81,24057.00
944.06,959.35,2310.24,22722.00
944.01,959.29,2309.66,19816.00
943.96,959.24,2309.09,24739.00
943.90,959.19,2308.51,24058.00
943.85,959.13,2307.93,18716.00
943.80,959.08,2307.36,27570.00
943.75,959.03,2306.78,18923.00
943.70,958.98,2306.20,20511.00
943.64,958.92,2305.63,22902.00
943.59,958.87,2305.05,19948.00
943.54,958.82,2304.47,20578.00
943.49,958.76,2303.89,21693.00
943.44,958.71,2303.32,19982.00
943.38,958.66,2302.74,19862.00
943.33,958.60,2302.16,19366.00
943.28,958.55,2301.59,20489.00
943.23,958.50,2301.01,25071.00
943.18,958.44,2300.43,23753.00
943.12,958.39,2299.85,18636.00
943.07,958.34,2299.28,23411.00
943.02,958.28,2298.70,19042.00
942.97,958.23,2298.12,20641.00
942.91,958.18,2297.54,24686.00
942.86,958.12,2296.97,26779.00
942.81,958.07,2296.39,25308.00
942.76,958.02,2295.81,17582.00
942.71,957.97,2295.23,18104.00
942.65,957.91,2294.65,18795.00
942.60,957.86,2294.08,21271.00
942.55,957.81,2293.50,23839.00
942.50,957.75,2292.92,26659.00
942.45,957.70,2292.34,18981.00
942.39,957.65,2291.76,17725.00
942.34,957.59,2291.18,19426.00
942.29,957.54,2290.61,22479.00
942.24,957.49,2290.03,25196.00
942.19,957.43,2289.45,22442.00
942.13,957.38,2288.87,20615.00
942.08,957.33,2288.29,20574.00
942.03,957.27,2287.71,18895.00
941.98,957.22,2287.13,23241.00
941.92,957.17,2286.55,23074.00
941.87,957.11,2285.97,19003.00
941.82,957.06,2285.40,23713.00
941.77,957.01,2284.82,24223.00
941.72,956.95,2284.24,24732.00
941.66,956.90,2283.66,22380.00
941.61,956.85,2283.08,21609.00
941.56,956.80,2282.50,24943.00
941.51,956.74,2281.92,22103.00
941.46,956.69,2281.34,21972.00
941.40,956.64,2280.76,22778.00
941.35,956.58,2280.18,23548.00
941.30,956.53,2279.60,20631.00
941.25,956.48,2279.02,22139.00
941.20,956.42,2278.44,22390.00
941.14,956.37,2277.86,21405.00
941.09,956.32,2277.28,20588.00
941.04,956.26,2276.70,20884.00
940.99,956.21,2276.12,22608.00
940.94,956.16,2275.54,20717.00
940.88,956.10,2274.96,22654.00
940.83,956.05,2274.38,19392.00
940.78,956.00,2273.80,21058.00
940.73,955.94,2273.22,24506.00
940.67,955.89,2272.64,22088.00
940.62,955.84,2272.06,22627.00
940.57,955.79,2271.48,25446.00
940.52,955.73,2270.90,22649.00
940.47,955.68,2270.32,20035.00
940.41,955.63,2269.74,24046.00
940.36,955.57,2269.16,24946.00
940.31,955.52,2268.57,21738.00
940.26,955.47,2267.99,25047.00
940.21,955.41,2267.41,21549.00
940.15,955.36,2266.83,24594.00
940.10,955.31,2266.25,25405.00
940.05,955.25,2265.67,20140.00
940.00,955.20,2265.09,16533.00
939.95,955.15,2264.51,23268.00
939.89,955.09,2263.92,25054.00
939.84,955.04,2263.34,25905.00
939.79,954.99,2262.76,22458.00
939.74,954.93,2262.18,24609.00
939.68,954.88,2261.60,21738.00
939.63,954.83,2261.02,27229.00
939.58,954.77,2260.43,23271.00
939.53,954.72,2259.85,20311.00
939.48,954.67,2259.27,26892.00
939.42,954.62,2258.69,25497.00
939.37,954.56,2258.11,22379.00
939.32,954.51,2257.52,19410.00
939.27,954.46,2256.94,24424.00
939.22,954.40,2256.36,25258.00
939.16,954.35,2255.78,23893.00
939.11,954.30,2255.19,25980.00
939.06,954.24,2254.61,21725.00
939.01,954.19,2254.03,23098.00
938.96,954.14,2253.45,23730.00
938.90,954.08,2252.86,24092.00
938.85,954.03,2252.28,22645.00
938.80,953.98,2251.70,27509.00
938.75,953.92,2251.12,18351.00
938.69,953.87,2250.53,24597.00
938.64,953.82,2249.95,25435.00
938.59,953.76,2249.37,27414.00
938.54,953.71,2248.78,22940.00
938.49,953.66,2248.20,27684.00
938.43,953.61,2247.62,25227.00
938.38,953.55,2247.03,28962.00
938.33,953.50,2246.45,25734.00
938.28,953.45,2245.87,21076.00
938.23,953.39,2245.28,27014.00
938.17,953.34,2244.70,29555.00
938.12,953.29,2244.12,27653.00
938.07,953.23,2243.53,21042.00
938.02,953.18,2242.95,22923.00
937.97,953.13,2242.36,24049.00
937.91,953.07,2241.78,21407.00
937.86,953.02,2241.20,22063.00
937.81,952.97,2240.61,26526.00
937.76,952.91,2240.03,22817.00
937.71,952.86,2239.44,18347.00
937.65,952.81,2238.86,24307.00
937.60,952.75,2238.28,23173.00
937.55,952.70,2237.69,22917.00
937.50,952.65,2237.11,28451.00
937.44,952.59,2236.52,25990.00
937.39,952.54,2235.94,26098.00
937.34,952.49,2235.35,24121.00
937.29,952.44,2234.77,23679.00
937.24,952.38,2234.18,21440.00
937.18,952.33,2233.60,22623.00
937.13,952.28,2233.01,22379.00
937.08,952.22,2232.43,29605.00
937.03,952.17,2231.84,23732.00
936.98,952.12,2231.26,23703.00
936.92,952.06,2230.67,25146.00
936.87,952.01,2230.09,21282.00
936.82,951.96,2229.50,24321.00
936.77,951.90,2228.92,22563.00
936.72,951.85,2228.33,23460.00
936.66,951.80,2227.75,25124.00
936.61,951.74,2227.16,31315.00
936.56,951.69,2226.57,24936.00
936.51,951.64,2225.99,22642.00
936.45,951.58,2225.40,25684.00
936.40,951.53,2224.82,21928.00
936.35,951.48,2224.23,27881.00
936.30,951.43,2223.65,24301.00
936.25,951.37,2223.06,24745.00
936.19,951.32,2222.47,20376.00
936.14,951.27,2221.89,24308.00
936.09,951.21,2221.30,23167.00
936.04,951.16,2220.71,26520.00
935.99,951.11,2220.13,24924.00
935.93,951.05,2219.54,23854.00
935.88,951.00,2218.96,28227.00
935.83,950.95,2218.37,25518.00
935.78,950.89,2217.78,31948.00
935.73,950.84,2217.20,23940.00
935.67,950.79,2216.61,24608.00
935.62,950.73,2216.02,27931.00
935.57,950.68,2215.44,28542.00
935.52,950.63,2214.85,24233.00
935.46,950.57,2214.26,23072.00
935.41,950.52,2213.67,23870.00
935.36,950.47,2213.09,25566.00
935.31,950.41,2212.50,25724.00
935.26,950.36,2211.91,30589.00
935.20,950.31,2211.33,27385.00
935.15,950.26,2210.74,21520.00
935.10,950.20,2210.15,25377.00
935.05,950.15,2209.56,18292.00
935.00,950.10,2208.98,23115.00
934.94,950.04,2208.39,28325.00
934.89,949.99,2207.80,27734.00
934.84,949.94,2207.21,29930.00
934.79,949.88,2206.62,22706.00
934.74,949.83,2206.04,24292.00
934.68,949.78,2205.45,25011.00
934.63,949.72,2204.86,24357.00
934.58,949.67,2204.27,26070.00
934.53,949.62,2203.68,25167.00
934.48,949.56,2203.10,31517.00
934.42,949.51,2202.51,28517.00
934.37,949.46,2201.92,25367.00
934.32,949.40,2201.33,24003.00
934.27,949.35,2200.74,27125.00
934.21,949.30,2200.15,24071.00
934.16,949.24,2199.56,26172.00
934.11,949.19,2198.98,28805.00
934.06,949.14,2198.39,24712.00
934.01,949.09,2197.80,25668.00
933.95,949.03,2197.21,24167.00
933.90,948.98,2196.62,27301.00
933.85,948.93,2196.03,21998.00
933.80,948.87,2195.44,22874.00
933.75,948.82,2194.85,26241.00
933.69,948.77,2194.26,25975.00
933.64,948.71,2193.67,21500.00
933.59,948.66,2193.08,23916.00
933.54,948.61,2192.50,26213.00
933.49,948.55,2191.91,27569.00
933.43,948.50,2191.32,27048.00
933.38,948.45,2190.73,27089.00
933.33,948.39,2190.14,26815.00
933.28,948.34,2189.55,24417.00
933.22,948.29,2188.96,26368.00
933.17,948.23,2188.37,22580.00
933.12,948.18,2187.78,25443.00
933.07,948.13,2187.19,23411.00
933.02,948.08,2186.60,20823.00
932.96,948.02,2186.01,29440.00
932.91,947.97,2185.42,24020.00
932.86,947.92,2184.83,24087.00
932.81,947.86,2184.24,26459.00
932.76,947.81,2183.65,23279.00
932.70,947.76,2183.06,27122.00
932.65,947.70,2182.46,23906.00
932.60,947.65,2181.87,28555.00
932.55,947.60,2181.28,19386.00
932.50,947.54,2180.69,23638.00
932.44,947.49,2180.10,22631.00
932.39,947.44,2179.51,26240.00
932.34,947.38,2178.92,26106.00
932.29,947.33,2178.33,25536.00
932.23,947.28,2177.74,25362.00
932.18,947.22,2177.15,29084.00
932.13,947.17,2176.55,35990.00
932.08,947.12,2175.96,25142.00
932.03,947.06,2175.37,20831.00
931.97,947.01,2174.78,25799.00
931.92,946.96,2174.19,28643.00
931.87,946.91,2173.60,29743.00
931.82,946.85,2173.01,28965.00
931.77,946.80,2172.41,28628.00
931.71,946.75,2171.82,26714.00
931.66,946.69,2171.23,23617.00
931.61,946.64,2170.64,24143.00
931.56,946.59,2170.05,21394.00
931.51,946.53,2169.45,26696.00
931.45,946.48,2168.86,23293.00
931.40,946.43,2168.27,32082.00
931.35,946.37,2167.68,25922.00
931.30,946.32,2167.09,24768.00
931.25,946.27,2166.49,25627.00
931.19,946.21,2165.90,26904.00
931.14,946.16,2165.31,24667.00
931.09,946.11,2164.72,26594.00
931.04,946.05,2164.12,24763.00
930.98,946.00,2163.53,29576.00
930.93,945.95,2162.94,27952.00
930.88,945.90,2162.35,24330.00
930.83,945.84,2161.75,22450.00
930.78,945.79,2161.16,31475.00
930.72,945.74,2160.57,32528.00
930.67,945.68,2159.97,26460.00
930.62,945.63,2159.38,24003.00
930.57,945.58,2158.79,22917.00
930.52,945.52,2158.19,23037.00
930.46,945.47,2157.60,25812.00
930.41,945.42,2157.01,29072.00
930.36,945.36,2156.41,22765.00
930.31,945.31,2155.82,26021.00
930.26,945.26,2155.23,31002.00
930.20,945.20,2154.63,27167.00
930.15,945.15,2154.04,27823.00
930.10,945.10,2153.44,29323.00
930.05,945.04,2152.85,32043.00
929.99,944.99,2152.26,23203.00
929.94,944.94,2151.66,26947.00
929.89,944.88,2151.07,26403.00
929.84,944.83,2150.47,26566.00
929.79,944.78,2149.88,24968.00
929.73,944.73,2149.29,29759.00
929.68,944.67,2148.69,29322.00
929.63,944.62,2148.10,27956.00
929.58,944.57,2147.50,22466.00
929.53,944.51,2146.91,27311.00
929.47,944.46,2146.31,29211.00
929.42,944.41,2145.72,31016.00
929.37,944.35,2145.12,26486.00
929.32,944.30,2144.53,27356.00
929.27,944.25,2143.93,27697.00
929.21,944.19,2143.34,28952.00
929.16,944.14,2142.74,28362.00
929.11,944.09,2142.15,33858.00
929.06,944.03,2141.55,26340.00
929.00,943.98,2140.96,27963.00
928.95,943.93,2140.36,29464.00
928.90,943.87,2139.77,31141.00
928.85,943.82,2139.17,25892.00
928.80,943.77,2138.58,28300.00
928.74,943.72,2137.98,34355.00
928.69,943.66,2137.39,36416.00
928.64,943.61,2136.79,24652.00
928.59,943.56,2136.19,28756.00
928.54,943.50,2135.60,24507.00
928.48,943.45,2135.00,23632.00
928.43,943.40,2134.41,24799.00
928.38,943.34,2133.81,25326.00
928.33,943.29,2133.21,27034.00
928.28,943.24,2132.62,32804.00
928.22,943.18,2132.02,33698.00
928.17,943.13,2131.43,26392.00
928.12,943.08,2130.83,27872.00
928.07,943.02,2130.23,37511.00
928.02,942.97,2129.64,32195.00
927.96,942.92,2129.04,28491.00
927.91,942.86,2128.44,27110.00
927.86,942.81,2127.85,27858.00
927.81,942.76,2127.25,26471.00
927.75,942.70,2126.65,27695.00
927.70,942.65,2126.06,27799.00
927.65,942.60,2125.46,24788.00
927.60,942.55,2124.86,26677.00
927.55,942.49,2124.26,31793.00
927.49,942.44,2123.67,25114.00
927.44,942.39,2123.07,23427.00
927.39,942.33,2122.47,34955.00
927.34,942.28,2121.88,25955.00
927.29,942.23,2121.28,24957.00
927.23,942.17,2120.68,32041.00
927.18,942.12,2120.08,27292.00
927.13,942.07,2119.49,30300.00
927.08,942.01,2118.89,23650.00
927.03,941.96,2118.29,28799.00
926.97,941.91,2117.69,32560.00
926.92,941.85,2117.09,29475.00
926.87,941.80,2116.50,24742.00
926.82,941.75,2115.90,27352.00
926.76,941.69,2115.30,23584.00
926.71,941.64,2114.70,27776.00
926.66,941.59,2114.10,28292.00
926.61,941.54,2113.50,31011.00
926.56,941.48,2112.91,30149.00
926.50,941.43,2112.31,29202.00
926.45,941.38,2111.71,30196.00
926.40,941.32,2111.11,29191.00
926.35,941.27,2110.51,26798.00
926.30,941.22,2109.91,31786.00
926.24,941.16,2109.31,29646.00
926.19,941.11,2108.72,34417.00
926.14,941.06,2108.12,26055.00
926.09,941.00,2107.52,28063.00
926.04,940.95,2106.92,31777.00
925.98,940.90,2106.32,28471.00
925.93,940.84,2105.72,24770.00
925.88,940.79,2105.12,28956.00
925.83,940.74,2104.52,28561.00
925.77,940.68,2103.92,28578.00
925.72,940.63,2103.32,26645.00
925.67,940.58,2102.72,25489.00
925.62,940.52,2102.12,26264.00
925.57,940.47,2101.52,30799.00
925.51,940.42,2100.92,26189.00
925.46,940.37,2100.32,32895.00
925.41,940.31,2099.72,30145.00
925.36,940.26,2099.12,27829.00
925.31,940.21,2098.52,34263.00
925.25,940.15,2097.92,32872.00
925.20,940.10,2097.32,30833.00
925.15,940.05,2096.72,27854.00
925.10,939.99,2096.12,27137.00
925.05,939.94,2095.52,30851.00
924.99,939.89,2094.92,26028.00
924.94,939.83,2094.32,25239.00
924.89,939.78,2093.72,35929.00
924.84,939.73,2093.12,37768.00
924.79,939.67,2092.52,28325.00
924.73,939.62,2091.92,28320.00
924.68,939.57,2091.32,27623.00
924.63,939.51,2090.72,32250.00
924.58,939.46,2090.12,27111.00
924.52,939.41,2089.52,29115.00
924.47,939.36,2088.91,35793.00
924.42,939.30,2088.31,32500.00
924.37,939.25,2087.71,26682.00
924.32,939.20,2087.11,26963.00
924.26,939.14,2086.51,27462.00
924.21,939.09,2085.91,30478.00
924.16,939.04,2085.31,27132.00
924.11,938.98,2084.70,27732.00
924.06,938.93,2084.10,30686.00
924.00,938.88,2083.50,29728.00
923.95,938.82,2082.90,30310.00
923.90,938.77,2082.30,32147.00
923.85,938.72,2081.70,25657.00
923.80,938.66,2081.09,26062.00
923.74,938.61,2080.49,27263.00
923.69,938.56,2079.89,32187.00
923.64,938.50,2079.29,33352.00
923.59,938.45,2078.68,27292.00
923.53,938.40,2078.08,27352.00
923.48,938.34,2077.48,27261.00
923.43,938.29,2076.88,34345.00
923.38,938.24,2076.28,32116.00
923.33,938.19,2075.67,32156.00
923.27,938.13,2075.07,26663.00
923.22,938.08,2074.47,35044.00
923.17,938.03,2073.86,29056.00
923.12,937.97,2073.26,25167.00
923.07,937.92,2072.66,28931.00
923.01,937.87,2072.06,28815.00
922.96,937.81,2071.45,26359.00
922.91,937.76,2070.85,32696.00
922.86,937.71,2070.25,30162.00
922.81,937.65,2069.64,30179.00
922.75,937.60,2069.04,33860.00
922.70,937.55,2068.44,30021.00
922.65,937.49,2067.83,30985.00
922.60,937.44,2067.23,32535.00
922.54,937.39,2066.62,31771.00
922.49,937.33,2066.02,32960.00
922.44,937.28,2065.42,30209.00
922.39,937.23,2064.81,28729.00
922.34,937.17,2064.21,29342.00
922.28,937.12,2063.61,28783.00
922.23,937.07,2063.00,28116.00
922.18,937.02,2062.40,30373.00
922.13,936.96,2061.79,27510.00
922.08,936.91,2061.19,27338.00
922.02,936.86,2060.58,32077.00
921.97,936.80,2059.98,29635.00
921.92,936.75,2059.38,25828.00
921.87,936.70,2058.77,27582.00
921.82,936.64,2058.17,29949.00
921.76,936.59,2057.56,29213.00
921.71,936.54,2056.96,26218.00
921.66,936.48,2056.35,30965.00
921.61,936.43,2055.75,29388.00
921.56,936.38,2055.14,27052.00
921.50,936.32,2054.54,34809.00
921.45,936.27,2053.93,27170.00
921.40,936.22,2053.33,30923.00
921.35,936.16,2052.72,26444.00
921.29,936.11,2052.12,24359.00
921.24,936.06,2051.51,29970.00
921.19,936.01,2050.91,30262.00
921.14,935.95,2050.30,25957.00
921.09,935.90,2049.69,27844.00
921.03,935.85,2049.09,32141.00
920.98,935.79,2048.48,34124.00
920.93,935.74,2047.88,33730.00
920.88,935.69,2047.27,33274.00
920.83,935.63,2046.67,31813.00
920.77,935.58,2046.06,29823.00
920.72,935.53,2045.45,29163.00
920.67,935.47,2044.85,30455.00
920.62,935.42,2044.24,26141.00
920.57,935.37,2043.64,28705.00
920.51,935.31,2043.03,25244.00
920.46,935.26,2042.42,30100.00
920.41,935.21,2041.82,32310.00
920.36,935.15,2041.21,34062.00
920.30,935.10,2040.60,30763.00
920.25,935.05,2040.00,27084.00
920.20,934.99,2039.39,29533.00
920.15,934.94,2038.78,33631.00
920.10,934.89,2038.18,31696.00
920.04,934.84,2037.57,30091.00
919.99,934.78,2036.96,24760.00
919.94,934.73,2036.35,32124.00
919.89,934.68,2035.75,36658.00
919.84,934.62,2035.14,33420.00
919.78,934.57,2034.53,30933.00
919.73,934.52,2033.93,30871.00
919.68,934.46,2033.32,26450.00
919.63,934.41,2032.71,31020.00
919.58,934.36,2032.10,27743.00
919.52,934.30,2031.50,31793.00
919.47,934.25,2030.89,29315.00
919.42,934.20,2030.28,33275.00
919.37,934.14,2029.67,32808.00
919.31,934.09,2029.06,33496.00
919.26,934.04,2028.46,27044.00
919.21,933.98,2027.85,33351.00
919.16,933.93,2027.24,26237.00
919.11,933.88,2026.63,29772.00
919.05,933.83,2026.02,28185.00
919.00,933.77,2025.42,30445.00
918.95,933.72,2024.81,34778.00
918.90,933.67,2024.20,29466.00
918.85,933.61,2023.59,32763.00
918.79,933.56,2022.98,33089.00
918.74,933.51,2022.37,30634.00
918.69,933.45,2021.76,29167.00
918.64,933.40,2021.16,25198.00
918.59,933.35,2020.55,31711.00
918.53,933.29,2019.94,36907.00
918.48,933.24,2019.33,29760.00
918.43,933.19,2018.72,31655.00
918.38,933.13,2018.11,34428.00
918.33,933.08,2017.50,31200.00
918.27,933.03,2016.89,36445.00
918.22,932.97,2016.28,33486.00
918.17,932.92,2015.67,32247.00
918.12,932.87,2015.06,28024.00
918.06,932.81,2014.45,33887.00
918.01,932.76,2013.84,27433.00
917.96,932.71,2013.23,24703.00
917.91,932.66,2012.62,31228.00
917.86,932.60,2012.01,30077.00
917.80,932.55,2011.40,34595.00
917.75,932.50,2010.79,31402.00
917.70,932.44,2010.18,29852.00
917.65,932.39,2009.57,34055.00
917.60,932.34,2008.96,32779.00
917.54,932.28,2008.35,31724.00
917.49,932.23,2007.74,32217.00
917.44,932.18,2007.13,30076.00
917.39,932.12,2006.52,28597.00
917.34,932.07,2005.91,33385.00
917.28,932.02,2005.30,35334.00
917.23,931.96,2004.69,29118.00
917.18,931.91,2004.08,29615.00
917.13,931.86,2003.47,33113.00
917.07,931.80,2002.86,26987.00
917.02,931.75,2002.25,34535.00
916.97,931.70,2001.64,31582.00
916.92,931.65,2001.03,32256.00
916.87,931.59,2000.41,37414.00
916.81,931.54,1999.80,33186.00
916.76,931.49,1999.19,27664.00
916.71,931.43,1998.58,30981.00
916.66,931.38,1997.97,29196.00
916.61,931.33,1997.36,27568.00
916.55,931.27,1996.75,32707.00
916.50,931.22,1996.13,34314.00
916.45,931.17,1995.52,34845.00
916.40,931.11,1994.91,32356.00
916.35,931.06,1994.30,36423.00
916.29,931.01,1993.69,30356.00
916.24,930.95,1993.07,33626.00
916.19,930.90,1992.46,31365.00
916.14,930.85,1991.85,35577.00
916.08,930.79,1991.24,30277.00
916.03,930.74,1990.63,31806.00
915.98,930.69,1990.01,31290.00
915.93,930.63,1989.40,35617.00
915.88,930.58,1988.79,33145.00
915.82,930.53,1988.18,27921.00
915.77,930.48,1987.56,34689.00
915.72,930.42,1986.95,33268.00
915.67,930.37,1986.34,30232.00
915.62,930.32,1985.72,32459.00
915.56,930.26,1985.11,31308.00
915.51,930.21,1984.50,27647.00
915.46,930.16,1983.89,29424.00
915.41,930.10,1983.27,34072.00
915.36,930.05,1982.66,28739.00
915.30,930.00,1982.05,28489.00
915.25,929.94,1981.43,30839.00
915.20,929.89,1980.82,31858.00
915.15,929.84,1980.21,29790.00
915.10,929.78,1979.59,34419.00
915.04,929.73,1978.98,30350.00
914.99,929.68,1978.37,31830.00
914.94,929.62,1977.75,34388.00
914.89,929.57,1977.14,32810.00
914.83,929.52,1976.52,37116.00
914.78,929.47,1975.91,31003.00
914.73,929.41,1975.30,32702.00
914.68,929.36,1974.68,30173.00
914.63,929.31,1974.07,31489.00
914.57,929.25,1973.45,37984.00
914.52,929.20,1972.84,28970.00
914.47,929.15,1972.22,32527.00
914.42,929.09,1971.61,33525.00
914.37,929.04,1971.00,33454.00
914.31,928.99,1970.38,34079.00
914.26,928.93,1969.77,32673.00
914.21,928.88,1969.15,32753.00
914.16,928.83,1968.54,35712.00
914.11,928.77,1967.92,30410.00
914.05,928.72,1967.31,34298.00
914.00,928.67,1966.69,32096.00
913.95,928.61,1966.08,32508.00
913.90,928.56,1965.46,31283.00
913.84,928.51,1964.85,37702.00
913.79,928.45,1964.23,33430.00
913.74,928.40,1963.62,31182.00
913.69,928.35,1963.00,33761.00
913.64,928.30,1962.38,37636.00
913.58,928.24,1961.77,35780.00
913.53,928.19,1961.15,29327.00
913.48,928.14,1960.54,36172.00
913.43,928.08,1959.92,28591.00
913.38,928.03,1959.31,38263.00
913.32,927.98,1958.69,34665.00
913.27,927.92,1958.07,34445.00
913.22,927.87,1957.46,33250.00
913.17,927.82,1956.84,30351.00
913.12,927.76,1956.22,32797.00
913.06,927.71,1955.61,33115.00
913.01,927.66,1954.99,41964.00
912.96,927.60,1954.38,34610.00
912.91,927.55,1953.76,26969.00
912.85,927.50,1953.14,33662.00
912.80,927.44,1952.53,35478.00
912.75,927.39,1951.91,29422.00
912.70,927.34,1951.29,31292.00
912.65,927.29,1950.68,29554.00
912.59,927.23,1950.06,31649.00
912.54,927.18,1949.44,36847.00
912.49,927.13,1948.82,38982.00
912.44,927.07,1948.21,31454.00
912.39,927.02,1947.59,40684.00
912.33,926.97,1946.97,28409.00
912.28,926.91,1946.36,30486.00
912.23,926.86,1945.74,33626.00
912.18,926.81,1945.12,32251.00
912.13,926.75,1944.50,32208.00
912.07,926.70,1943.89,31319.00
912.02,926.65,1943.27,31513.00
911.97,926.59,1942.65,35121.00
911.92,926.54,1942.03,38682.00
911.87,926.49,1941.41,35116.00
911.81,926.43,1940.80,31450.00
911.76,926.38,1940.18,30116.00
911.71,926.33,1939.56,30476.00
911.66,926.27,1938.94,32403.00
911.60,926.22,1938.32,35475.00
911.55,926.17,1937.70,36532.00
911.50,926.12,1937.09,32370.00
911.45,926.06,1936.47,35960.00
911.40,926.01,1935.85,37525.00
911.34,925.96,1935.23,36618.00
911.29,925.90,1934.61,38987.00
911.24,925.85,1933.99,37389.00
911.19,925.80,1933.37,35017.00
911.14,925.74,1932.76,28067.00
911.08,925.69,1932.14,37418.00
911.03,925.64,1931.52,32099.00
910.98,925.58,1930.90,32920.00
910.93,925.53,1930.28,36672.00
910.88,925.48,1929.66,35063.00
910.82,925.42,1929.04,32345.00
910.77,925.37,1928.42,32879.00
910.72,925.32,1927.80,30745.00
910.67,925.26,1927.18,31783.00
910.61,925.21,1926.56,32750.00
910.56,925.16,1925.94,35547.00
910.51,925.10,1925.32,32429.00
910.46,925.05,1924.70,37076.00
910.41,925.00,1924.08,34903.00
910.35,924.95,1923.46,36015.00
910.30,924.89,1922.84,35730.00
910.25,924.84,1922.22,30491.00
910.20,924.79,1921.60,33926.00
910.15,924.73,1920.98,37607.00
910.09,924.68,1920.36,34972.00
910.04,924.63,1919.74,32282.00
909.99,924.57,1919.12,33950.00
909.94,924.52,1918.50,41088.00
909.89,924.47,1917.88,33896.00
909.83,924.41,1917.26,37991.00
909.78,924.36,1916.64,37270.00
909.73,924.31,1916.02,35237.00
909.68,924.25,1915.40,31604.00
909.62,924.20,1914.78,32303.00
909.57,924.15,1914.15,32958.00
909.52,924.09,1913.53,28444.00
909.47,924.04,1912.91,31124.00
909.42,923.99,1912.29,35196.00
909.36,923.94,1911.67,35051.00
909.31,923.88,1911.05,34660.00
909.26,923.83,1910.43,30577.00
909.21,923.78,1909.81,32758.00
909.16,923.72,1909.18,30651.00
909.10,923.67,1908.56,34105.00
909.05,923.62,1907.94,28523.00
909.00,923.56,1907.32,30648.00
908.95,923.51,1906.70,31662.00
908.90,923.46,1906.07,39828.00
908.84,923.40,1905.45,31640.00
908.79,923.35,1904.83,38541.00
908.74,923.30,1904.21,35216.00
908.69,923.24,1903.59,35859.00
908.64,923.19,1902.96,33196.00
908.58,923.14,1902.34,37549.00
908.53,923.08,1901.72,34047.00
908.48,923.03,1901.10,35415.00
908.43,922.98,1900.47,37111.00
908.37,922.92,1899.85,34513.00
908.32,922.87,1899.23,35378.00
908.27,922.82,1898.60,36526.00
908.22,922.77,1897.98,39050.00
908.17,922.71,1897.36,40181.00
908.11,922.66,1896.74,36404.00
908.06,922.61,1896.11,35899.00
908.01,922.55,1895.49,40766.00
907.96,922.50,1894.87,36699.00
907.91,922.45,1894.24,33940.00
907.85,922.39,1893.62,36488.00
907.80,922.34,1893.00,35215.00
907.75,922.29,1892.37,35052.00
907.70,922.23,1891.75,36613.00
907.65,922.18,1891.12,34354.00
907.59,922.13,1890.50,35729.00
907.54,922.07,1889.88,30587.00
907.49,922.02,1889.25,35710.00
907.44,921.97,1888.63,32885.00
907.38,921.91,1888.00,40745.00
907.33,921.86,1887.38,38445.00
907.28,921.81,1886.76,30152.00
907.23,921.76,1886.13,37203.00
907.18,921.70,1885.51,38937.00
907.12,921.65,1884.88,34035.00
907.07,921.60,1884.26,35062.00
907.02,921.54,1883.63,32428.00
906.97,921.49,1883.01,34754.00
906.92,921.44,1882.39,35075.00
906.86,921.38,1881.76,38444.00
906.81,921.33,1881.14,38926.00
906.76,921.28,1880.51,38940.00
906.71,921.22,1879.89,34682.00
906.66,921.17,1879.26,36300.00
906.60,921.12,1878.64,30004.00
906.55,921.06,1878.01,37852.00
906.50,921.01,1877.38,31010.00
906.45,920.96,1876.76,35123.00
906.39,920.90,1876.13,35741.00
906.34,920.85,1875.51,39949.00
906.29,920.80,1874.88,32223.00
906.24,920.74,1874.26,31727.00
906.19,920.69,1873.63,32855.00
906.13,920.64,1873.01,36441.00
906.08,920.59,1872.38,36963.00
906.03,920.53,1871.75,34999.00
905.98,920.48,1871.13,41237.00
905.93,920.43,1870.50,43867.00
905.87,920.37,1869.88,32648.00
905.82,920.32,1869.25,35764.00
905.77,920.27,1868.62,36859.00
905.72,920.21,1868.00,35314.00
905.67,920.16,1867.37,37446.00
905.61,920.11,1866.74,37826.00
905.56,920.05,1866.12,35738.00
905.51,920.00,1865.49,34981.00
905.46,919.95,1864.86,35222.00
905.41,919.89,1864.24,36735.00
905.35,919.84,1863.61,39676.00
905.30,919.79,1862.98,32005.00
905.25,919.73,1862.36,42329.00
905.20,919.68,1861.73,38147.00
905.14,919.63,1861.10,39703.00
905.09,919.58,1860.47,35119.00
905.04,919.52,1859.85,38125.00
904.99,919.47,1859.22,36144.00
904.94,919.42,1858.59,36526.00
904.88,919.36,1857.96,39966.00
904.83,919.31,1857.34,44184.00
904.78,919.26,1856.71,34449.00
904.73,919.20,1856.08,36895.00
904.68,919.15,1855.45,36753.00
904.62,919.10,1854.83,35182.00
904.57,919.04,1854.20,28152.00
904.52,918.99,1853.57,36972.00
904.47,918.94,1852.94,33085.00
904.42,918.88,1852.31,33749.00
904.36,918.83,1851.68,37691.00
904.31,918.78,1851.06,38919.00
904.26,918.72,1850.43,41473.00
904.21,918.67,1849.80,31901.00
904.15,918.62,1849.17,39476.00
904.10,918.56,1848.54,41576.00
904.05,918.51,1847.91,37323.00
904.00,918.46,1847.28,42502.00
903.95,918.41,1846.66,39160.00
903.89,918.35,1846.03,40173.00
903.84,918.30,1845.40,41312.00
903.79,918.25,1844.77,37209.00
903.74,918.19,1844.14,36380.00
903.69,918.14,1843.51,38833.00
903.63,918.09,1842.88,37556.00
903.58,918.03,1842.25,37947.00
903.53,917.98,1841.62,39107.00
903.48,917.93,1840.99,36535.00
903.43,917.87,1840.36,36473.00
903.37,917.82,1839.73,43622.00
903.32,917.77,1839.10,44253.00
903.27,917.71,1838.47,43398.00
903.22,917.66,1837.84,35886.00
903.16,917.61,1837.21,41744.00
903.11,917.55,1836.58,39959.00
903.06,917.50,1835.95,36581.00
903.01,917.45,1835.32,38439.00
902.96,917.40,1834.69,36970.00
902.90,917.34,1834.06,38461.00
902.85,917.29,1833.43,39063.00
902.80,917.24,1832.80,43466.00
902.75,917.18,1832.17,47213.00
902.70,917.13,1831.54,41159.00
902.64,917.08,1830.91,42807.00
902.59,917.02,1830.28,36321.00
902.54,916.97,1829.65,43333.00
902.49,916.92,1829.02,35789.00
902.44,916.86,1828.39,43092.00
902.38,916.81,1827.76,36750.00
902.33,916.76,1827.13,39286.00
902.28,916.70,1826.49,38704.00
902.23,916.65,1825.86,43271.00
902.18,916.60,1825.23,43919.00
902.12,916.54,1824.60,41363.00
902.07,916.49,1823.97,43472.00
902.02,916.44,1823.34,43251.00
901.97,916.38,1822.71,39464.00
901.91,916.33,1822.07,37469.00
901.86,916.28,1821.44,39407.00
901.81,916.23,1820.81,42962.00
901.76,916.17,1820.18,40126.00
901.71,916.12,1819.55,44620.00
901.65,916.07,1818.91,47253.00
901.60,916.01,1818.28,41383.00
901.55,915.96,1817.65,41350.00
901.50,915.91,1817.02,42987.00
901.45,915.85,1816.38,43599.00
901.39,915.80,1815.75,39641.00
901.34,915.75,1815.12,41966.00
901.29,915.69,1814.49,41717.00
901.24,915.64,1813.85,38788.00
901.19,915.59,1813.22,40644.00
901.13,915.53,1812.59,46005.00
901.08,915.48,1811.96,37956.00
901.03,915.43,1811.32,44231.00
900.98,915.37,1810.69,39305.00
900.92,915.32,1810.06,43877.00
900.87,915.27,1809.42,37688.00
900.82,915.21,1808.79,41840.00
900.77,915.16,1808.16,39174.00
900.72,915.11,1807.52,47244.00
900.66,915.06,1806.89,40388.00
900.61,915.00,1806.26,47285.00
900.56,914.95,1805.62,43844.00
900.51,914.90,1804.99,48744.00
900.46,914.84,1804.36,41458.00
900.40,914.79,1803.72,47028.00
900.35,914.74,1803.09,39874.00
900.30,914.68,1802.45,38305.00
900.25,914.63,1801.82,44210.00
900.20,914.58,1801.19,37648.00
900.14,914.52,1800.55,37619.00
900.09,914.47,1799.92,41193.00
900.04,914.42,1799.28,40414.00
899.99,914.36,1798.65,45301.00
899.93,914.31,1798.01,46228.00
899.88,914.26,1797.38,44533.00
899.83,914.20,1796.74,42213.00
899.78,914.15,1796.11,42358.00
899.73,914.10,1795.48,44819.00
899.67,914.05,1794.84,40595.00
899.62,913.99,1794.21,41598.00
899.57,913.94,1793.57,39848.00
899.52,913.89,1792.94,43630.00
899.47,913.83,1792.30,48577.00
899.41,913.78,1791.67,40576.00
899.36,913.73,1791.03,46400.00
899.31,913.67,1790.39,40125.00
899.26,913.62,1789.76,38010.00
899.21,913.57,1789.12,44913.00
899.15,913.51,1788.49,39814.00
899.10,913.46,1787.85,44166.00
899.05,913.41,1787.22,38552.00
899.00,913.35,1786.58,44606.00
898.95,913.30,1785.94,45906.00
898.89,913.25,1785.31,41705.00
898.84,913.19,1784.67,43486.00
898.79,913.14,1784.04,40133.00
898.74,913.09,1783.40,43875.00
898.68,913.03,1782.76,41533.00
898.63,912.98,1782.13,38948.00
898.58,912.93,1781.49,41792.00
898.53,912.88,1780.85,50098.00
898.48,912.82,1780.22,37786.00
898.42,912.77,1779.58,43244.00
898.37,912.72,1778.94,43083.00
898.32,912.66,1778.31,45211.00
898.27,912.61,1777.67,46767.00
898.22,912.56,1777.03,45250.00
898.16,912.50,1776.40,48390.00
898.11,912.45,1775.76,40312.00
898.06,912.40,1775.12,49387.00
898.01,912.34,1774.49,50427.00
897.96,912.29,1773.85,39187.00
897.90,912.24,1773.21,42535.00
897.85,912.18,1772.57,44581.00
897.80,912.13,1771.94,47992.00
897.75,912.08,1771.30,44824.00
897.69,912.02,1770.66,41725.00
897.64,911.97,1770.02,40665.00
897.59,911.92,1769.38,41565.00
897.54,911.87,1768.75,48616.00
897.49,911.81,1768.11,49125.00
897.43,911.76,1767.47,42343.00
897.38,911.71,1766.83,44067.00
897.33,911.65,1766.19,46439.00
897.28,911.60,1765.56,40710.00
897.23,911.55,1764.92,43795.00
897.17,911.49,1764.28,45233.00
897.12,911.44,1763.64,49654.00
897.07,911.39,1763.00,41589.00
897.02,911.33,1762.36,37357.00
896.97,911.28,1761.73,45261.00
896.91,911.23,1761.09,46804.00
896.86,911.17,1760.45,45671.00
896.81,911.12,1759.81,43911.00
896.76,911.07,1759.17,47708.00
896.70,911.01,1758.53,45468.00
896.65,910.96,1757.89,48985.00
896.60,910.91,1757.25,41307.00
896.55,910.85,1756.61,46747.00
896.50,910.80,1755.97,38295.00
896.44,910.75,1755.33,42693.00
896.39,910.70,1754.69,48618.00
896.34,910.64,1754.05,44020.00
896.29,910.59,1753.41,49360.00
896.24,910.54,1752.78,42558.00
896.18,910.48,1752.14,45246.00
896.13,910.43,1751.50,50363.00
896.08,910.38,1750.86,44057.00
896.03,910.32,1750.22,48293.00
895.98,910.27,1749.58,51264.00
895.92,910.22,1748.93,53048.00
895.87,910.16,1748.29,47577.00
895.82,910.11,1747.65,54720.00
895.77,910.06,1747.01,44664.00
895.72,910.00,1746.37,45749.00
895.66,909.95,1745.73,45442.00
895.61,909.90,1745.09,42951.00
895.56,909.84,1744.45,45157.00
895.51,909.79,1743.81,43573.00
895.45,909.74,1743.17,43617.00
895.40,909.69,1742.53,54387.00
895.35,909.63,1741.89,44286.00
895.30,909.58,1741.25,48658.00
895.25,909.53,1740.61,47209.00
895.19,909.47,1739.96,46448.00
895.14,909.42,1739.32,45106.00
895.09,909.37,1738.68,48904.00
895.04,909.31,1738.04,44073.00
894.99,909.26,1737.40,45036.00
894.93,909.21,1736.76,50199.00
894.88,909.15,1736.11,50000.00
894.83,909.10,1735.47,48601.00
894.78,909.05,1734.83,53188.00
894.73,908.99,1734.19,49523.00
894.67,908.94,1733.55,51608.00
894.62,908.89,1732.90,48124.00
894.57,908.83,1732.26,50719.00
894.52,908.78,1731.62,53830.00
894.46,908.73,1730.98,42994.00
894.41,908.67,1730.34,43122.00
894.36,908.62,1729.69,59107.00
894.31,908.57,1729.05,51422.00
894.26,908.52,1728.41,50756.00
894.20,908.46,1727.77,50843.00
894.15,908.41,1727.12,50220.00
894.10,908.36,1726.48,47047.00
894.05,908.30,1725.84,49227.00
894.00,908.25,1725.19,48472.00
893.94,908.20,1724.55,44727.00
893.89,908.14,1723.91,55485.00
893.84,908.09,1723.26,52378.00
893.79,908.04,1722.62,53260.00
893.74,907.98,1721.98,43186.00
893.68,907.93,1721.33,54146.00
893.63,907.88,1720.69,53764.00
893.58,907.82,1720.05,48765.00
893.53,907.77,1719.40,41701.00
893.47,907.72,1718.76,51325.00
893.42,907.66,1718.12,55224.00
893.37,907.61,1717.47,52002.00
893.32,907.56,1716.83,49375.00
893.27,907.51,1716.18,50524.00
893.21,907.45,1715.54,54915.00
893.16,907.40,1714.90,48622.00
893.11,907.35,1714.25,53039.00
893.06,907.29,1713.61,49605.00
893.01,907.24,1712.96,44606.00
892.95,907.19,1712.32,51109.00
892.90,907.13,1711.67,51662.00
892.85,907.08,1711.03,51197.00
892.80,907.03,1710.38,56006.00
892.75,906.97,1709.74,60320.00
892.69,906.92,1709.09,54277.00
892.64,906.87,1708.45,48971.00
892.59,906.81,1707.80,48640.00
892.54,906.76,1707.16,45945.00
892.49,906.71,1706.51,46073.00
892.43,906.65,1705.87,63030.00
892.38,906.60,1705.22,50219.00
892.33,906.55,1704.58,48824.00
892.28,906.49,1703.93,54652.00
892.22,906.44,1703.29,52519.00
892.17,906.39,1702.64,53010.00
892.12,906.34,1702.00,53500.00
892.07,906.28,1701.35,45649.00
892.02,906.23,1700.70,51311.00
891.96,906.18,1700.06,52628.00
891.91,906.12,1699.41,45872.00
891.86,906.07,1698.77,52183.00
891.81,906.02,1698.12,53730.00
891.76,905.96,1697.47,49637.00
891.70,905.91,1696.83,52585.00
891.65,905.86,1696.18,53013.00
891.60,905.80,1695.53,51268.00
891.55,905.75,1694.89,53908.00
891.50,905.70,1694.24,60786.00
891.44,905.64,1693.59,57103.00
891.39,905.59,1692.95,49954.00
891.34,905.54,1692.30,53735.00
891.29,905.48,1691.65,48003.00
891.23,905.43,1691.01,53717.00
891.18,905.38,1690.36,55646.00
891.13,905.33,1689.71,58254.00
891.08,905.27,1689.07,59375.00
891.03,905.22,1688.42,52043.00
890.97,905.17,1687.77,53431.00
890.92,905.11,1687.12,60327.00
890.87,905.06,1686.48,53487.00
890.82,905.01,1685.83,58279.00
890.77,904.95,1685.18,50752.00
890.71,904.90,1684.53,53257.00
890.66,904.85,1683.88,58689.00
890.61,904.79,1683.24,58045.00
890.56,904.74,1682.59,50903.00
890.51,904.69,1681.94,61538.00
890.45,904.63,1681.29,55159.00
890.40,904.58,1680.64,53277.00
890.35,904.53,1680.00,58919.00
890.30,904.47,1679.35,57982.00
890.24,904.42,1678.70,53010.00
890.19,904.37,1678.05,57765.00
890.14,904.31,1677.40,56028.00
890.09,904.26,1676.75,62119.00
890.04,904.21,1676.10,59967.00
889.98,904.16,1675.46,52441.00
889.93,904.10,1674.81,50641.00
889.88,904.05,1674.16,51239.00
889.83,904.00,1673.51,60037.00
889.78,903.94,1672.86,56021.00
889.72,903.89,1672.21,55437.00
889.67,903.84,1671.56,63185.00
889.62,903.78,1670.91,57388.00
889.57,903.73,1670.26,58038.00
889.52,903.68,1669.61,55636.00
889.46,903.62,1668.96,50391.00
889.41,903.57,1668.31,54178.00
889.36,903.52,1667.66,60158.00
889.31,903.46,1667.01,61415.00
889.26,903.41,1666.36,57465.00
889.20,903.36,1665.71,57319.00
889.15,903.30,1665.06,57538.00
889.10,903.25,1664.41,61644.00
889.05,903.20,1663.76,60858.00
888.99,903.14,1663.11,61289.00
888.94,903.09,1662.46,59521.00
888.89,903.04,1661.81,62053.00
888.84,902.99,1661.16,63997.00
888.79,902.93,1660.51,54429.00
888.73,902.88,1659.86,56188.00
888.68,902.83,1659.21,67019.00
888.63,902.77,1658.56,59135.00
888.58,902.72,1657.91,53803.00
888.53,902.67,1657.26,54569.00
888.47,902.61,1656.61,52352.00
888.42,902.56,1655.96,59053.00
888.37,902.51,1655.30,54187.00
888.32,902.45,1654.65,56914.00
888.27,902.40,1654.00,56745.00
888.21,902.35,1653.35,58385.00
888.16,902.29,1652.70,64362.00
888.11,902.24,1652.05,60124.00
888.06,902.19,1651.40,60799.00
888.00,902.13,1650.74,55733.00
887.95,902.08,1650.09,58904.00
887.90,902.03,1649.44,62174.00
887.85,901.98,1648.79,61897.00
887.80,901.92,1648.14,57040.00
887.74,901.87,1647.48,61665.00
887.69,901.82,1646.83,59225.00
887.64,901.76,1646.18,66463.00
887.59,901.71,1645.53,53648.00
887.54,901.66,1644.87,68691.00
887.48,901.60,1644.22,55309.00
887.43,901.55,1643.57,65612.00
887.38,901.50,1642.92,62545.00
887.33,901.44,1642.26,70601.00
887.28,901.39,1641.61,67859.00
887.22,901.34,1640.96,68539.00
887.17,901.28,1640.30,68831.00
887.12,901.23,1639.65,62296.00
887.07,901.18,1639.00,65786.00
887.01,901.12,1638.35,67850.00
886.96,901.07,1637.69,66461.00
886.91,901.02,1637.04,65566.00
886.86,900.96,1636.39,69816.00
886.81,900.91,1635.73,65329.00
886.75,900.86,1635.08,67287.00
886.70,900.81,1634.42,67754.00
886.65,900.75,1633.77,79892.00
886.60,900.70,1633.12,68080.00
886.55,900.65,1632.46,73294.00
886.49,900.59,1631.81,75556.00
886.44,900.54,1631.16,72799.00
886.39,900.49,1630.50,76431.00
886.34,900.43,1629.85,65358.00
886.29,900.38,1629.19,74525.00
886.23,900.33,1628.54,71055.00
886.18,900.27,1627.88,71833.00
886.13,900.22,1627.23,76694.00
886.08,900.17,1626.57,68216.00
886.03,900.11,1625.92,70287.00
885.97,900.06,1625.27,75962.00
885.92,900.01,1624.61,72742.00
885.87,899.95,1623.96,76454.00
885.82,899.90,1623.30,72614.00
885.76,899.85,1622.65,74806.00
885.71,899.80,1621.99,70545.00
885.66,899.74,1621.34,67952.00
885.61,899.69,1620.68,77480.00
885.56,899.64,1620.02,70309.00
885.50,899.58,1619.37,73015.00
885.45,899.53,1618.71,79347.00
885.40,899.48,1618.06,76551.00
885.35,899.42,1617.40,76469.00
885.30,899.37,1616.75,79558.00
885.24,899.32,1616.09,80720.00
885.19,899.26,1615.43,84649.00
885.14,899.21,1614.78,76999.00
885.09,899.16,1614.12,82718.00
885.04,899.10,1613.47,70302.00
884.98,899.05,1612.81,86098.00
884.93,899.00,1612.15,79484.00
884.88,898.94,1611.50,83382.00
884.83,898.89,1610.84,75181.00
884.77,898.84,1610.18,76053.00
884.72,898.78,1609.53,83574.00
884.67,898.73,1608.87,83999.00
884.62,898.68,1608.21,89589.00
884.57,898.63,1607.56,88235.00
884.51,898.57,1606.90,87396.00
884.46,898.52,1606.24,87745.00
884.41,898.47,1605.59,81202.00
884.36,898.41,1604.93,86428.00
884.31,898.36,1604.27,87552.00
884.25,898.31,1603.61,101447.00
884.20,898.25,1602.96,102249.00
884.15,898.20,1602.30,100080.00
884.10,898.15,1601.64,99710.00
884.05,898.09,1600.98,107033.00
883.99,898.04,1600.33,105843.00
883.94,897.99,1599.67,100002.00
883.89,897.93,1599.01,105029.00
883.84,897.88,1598.35,109072.00
883.78,897.83,1597.70,109381.00
883.73,897.77,1597.04,105964.00
883.68,897.72,1596.38,111280.00
883.63,897.67,1595.72,102258.00
883.58,897.62,1595.06,103574.00
883.52,897.56,1594.40,110249.00
883.47,897.51,1593.75,103879.00
883.42,897.46,1593.09,107144.00
883.37,897.40,1592.43,104311.00
883.32,897.35,1591.77,102131.00
883.26,897.30,1591.11,94041.00
883.21,897.24,1590.45,102623.00
883.16,897.19,1589.79,92508.00
883.11,897.14,1589.13,103794.00
883.06,897.08,1588.48,94693.00
883.00,897.03,1587.82,92555.00
882.95,896.98,1587.16,96321.00
882.90,896.92,1586.50,87386.00
882.85,896.87,1585.84,92629.00
882.79,896.82,1585.18,97940.00
882.74,896.76,1584.52,92583.00
882.69,896.71,1583.86,91150.00
882.64,896.66,1583.20,93431.00
882.59,896.60,1582.54,84401.00
882.53,896.55,1581.88,97360.00
882.48,896.50,1581.22,89765.00
882.43,896.45,1580.56,93922.00
882.38,896.39,1579.90,90216.00
882.33,896.34,1579.24,91080.00
882.27,896.29,1578.58,92685.00
882.22,896.23,1577.92,89520.00
882.17,896.18,1577.26,88374.00
882.12,896.13,1576.60,89828.00
882.07,896.07,1575.94,82841.00
882.01,896.02,1575.28,82313.00
881.96,895.97,1574.62,89935.00
881.91,895.91,1573.96,82866.00
881.86,895.86,1573.29,94908.00
881.81,895.81,1572.63,86215.00
881.75,895.75,1571.97,85064.00
881.70,895.70,1571.31,86143.00
881.65,895.65,1570.65,80255.00
881.60,895.59,1569.99,80262.00
881.54,895.54,1569.33,85176.00
881.49,895.49,1568.67,88379.00
881.44,895.44,1568.00,81740.00
881.39,895.38,1567.34,76482.00
881.34,895.33,1566.68,81225.00
881.28,895.28,1566.02,82156.00
881.23,895.22,1565.36,84016.00
881.18,895.17,1564.70,79954.00
881.13,895.12,1564.03,85574.00
881.08,895.06,1563.37,81220.00
881.02,895.01,1562.71,81999.00
880.97,894.96,1562.05,78096.00
880.92,894.90,1561.38,78903.00
880.87,894.85,1560.72,81839.00
880.82,894.80,1560.06,73071.00
880.76,894.74,1559.40,78715.00
880.71,894.69,1558.73,80590.00
880.66,894.64,1558.07,78419.00
880.61,894.58,1557.41,79782.00
880.55,894.53,1556.75,71275.00
880.50,894.48,1556.08,75802.00
880.45,894.42,1555.42,77448.00
880.40,894.37,1554.76,71134.00
880.35,894.32,1554.09,76626.00
880.29,894.27,1553.43,75304.00
880.24,894.21,1552.77,76322.00
880.19,894.16,1552.10,75289.00
880.14,894.11,1551.44,77442.00
880.09,894.05,1550.78,73653.00
880.03,894.00,1550.11,80873.00
879.98,893.95,1549.45,75331.00
879.93,893.89,1548.79,71730.00
879.88,893.84,1548.12,72082.00
879.83,893.79,1547.46,73353.00
879.77,893.73,1546.79,70787.00
879.72,893.68,1546.13,69954.00
879.67,893.63,1545.47,75546.00
879.62,893.57,1544.80,72517.00
879.56,893.52,1544.14,64994.00
879.51,893.47,1543.47,73432.00
879.46,893.41,1542.81,61448.00
879.41,893.36,1542.14,73467.00
879.36,893.31,1541.48,77466.00
879.30,893.26,1540.81,74496.00
879.25,893.20,1540.15,81069.00
879.20,893.15,1539.48,75106.00
879.15,893.10,1538.82,71245.00
879.10,893.04,1538.15,68690.00
879.04,892.99,1537.49,72043.00
878.99,892.94,1536.82,68241.00
878.94,892.88,1536.16,59227.00
878.89,892.83,1535.49,73056.00
878.84,892.78,1534.83,73486.00
878.78,892.72,1534.16,68380.00
878.73,892.67,1533.50,64327.00
878.68,892.62,1532.83,66495.00
878.63,892.56,1532.16,75916.00
878.58,892.51,1531.50,65122.00
878.52,892.46,1530.83,64272.00
878.47,892.40,1530.17,65621.00
878.42,892.35,1529.50,67487.00
878.37,892.30,1528.83,68091.00
878.31,892.24,1528.17,68449.00
878.26,892.19,1527.50,67094.00
878.21,892.14,1526.83,69668.00
878.16,892.09,1526.17,68279.00
878.11,892.03,1525.50,68319.00
878.05,891.98,1524.84,68364.00
878.00,891.93,1524.17,66835.00
877.95,891.87,1523.50,67183.00
877.90,891.82,1522.83,70480.00
877.85,891.77,1522.17,68879.00
877.79,891.71,1521.50,70622.00
877.74,891.66,1520.83,68445.00
877.69,891.61,1520.17,67515.00
877.64,891.55,1519.50,66545.00
877.59,891.50,1518.83,66639.00
877.53,891.45,1518.16,64809.00
877.48,891.39,1517.50,67152.00
877.43,891.34,1516.83,62154.00
877.38,891.29,1516.16,70875.00
877.32,891.23,1515.49,72885.00
877.27,891.18,1514.83,64400.00
877.22,891.13,1514.16,59856.00
877.17,891.07,1513.49,65104.00
877.12,891.02,1512.82,65271.00
877.06,890.97,1512.15,65774.00
877.01,890.92,1511.48,65856.00
876.96,890.86,1510.82,64043.00
876.91,890.81,1510.15,72126.00
876.86,890.76,1509.48,65584.00
876.80,890.70,1508.81,65994.00
876.75,890.65,1508.14,67687.00
876.70,890.60,1507.47,65990.00
876.65,890.54,1506.80,70673.00
876.60,890.49,1506.14,64498.00
876.54,890.44,1505.47,64319.00
876.49,890.38,1504.80,67247.00
876.44,890.33,1504.13,66469.00
876.39,890.28,1503.46,67023.00
876.33,890.22,1502.79,69581.00
876.28,890.17,1502.12,59935.00
876.23,890.12,1501.45,64962.00
876.18,890.06,1500.78,73978.00
876.13,890.01,1500.11,68432.00
876.07,889.96,1499.44,58481.00
876.02,889.91,1498.77,65914.00
875.97,889.85,1498.10,68768.00
875.92,889.80,1497.43,68431.00
875.87,889.75,1496.76,67807.00
875.81,889.69,1496.09,71066.00
875.76,889.64,1495.42,63225.00
875.71,889.59,1494.75,64774.00
875.66,889.53,1494.08,62225.00
875.61,889.48,1493.41,67710.00
875.55,889.43,1492.74,71061.00
875.50,889.37,1492.07,68153.00
875.45,889.32,1491.40,69540.00
875.40,889.27,1490.73,65498.00
875.35,889.21,1490.06,64220.00
875.29,889.16,1489.39,68669.00
875.24,889.11,1488.72,59581.00
875.19,889.05,1488.05,71136.00
875.14,889.00,1487.37,68869.00
875.08,888.95,1486.70,68361.00
875.03,888.89,1486.03,73498.00
874.98,888.84,1485.36,68840.00
874.93,888.79,1484.69,76545.00
874.88,888.74,1484.02,72197.00
874.82,888.68,1483.35,73062.00
874.77,888.63,1482.67,67131.00
874.72,888.58,1482.00,64890.00
874.67,888.52,1481.33,69457.00
874.62,888.47,1480.66,61526.00
874.56,888.42,1479.99,69447.00
874.51,888.36,1479.31,66571.00
874.46,888.31,1478.64,70160.00
874.41,888.26,1477.97,63398.00
874.36,888.20,1477.30,72287.00
874.30,888.15,1476.62,66678.00
874.25,888.10,1475.95,68281.00
874.20,888.04,1475.28,68387.00
874.15,887.99,1474.61,61690.00
874.09,887.94,1473.93,69767.00
874.04,887.88,1473.26,71758.00
873.99,887.83,1472.59,68764.00
873.94,887.78,1471.92,72037.00
873.89,887.73,1471.24,73534.00
873.83,887.67,1470.57,73148.00
873.78,887.62,1469.90,74702.00
873.73,887.57,1469.22,72954.00
873.68,887.51,1468.55,77527.00
873.63,887.46,1467.88,69500.00
873.57,887.41,1467.20,69492.00
873.52,887.35,1466.53,65045.00
873.47,887.30,1465.86,73742.00
873.42,887.25,1465.18,76441.00
873.37,887.19,1464.51,72593.00
873.31,887.14,1463.83,69906.00
873.26,887.09,1463.16,74905.00
873.21,887.03,1462.49,70109.00
873.16,886.98,1461.81,77431.00
873.10,886.93,1461.14,72263.00
873.05,886.87,1460.46,63910.00
873.00,886.82,1459.79,80559.00
872.95,886.77,1459.11,70688.00
872.90,886.71,1458.44,71917.00
872.84,886.66,1457.76,71237.00
872.79,886.61,1457.09,73890.00
872.74,886.56,1456.41,71863.00
872.69,886.50,1455.74,71856.00
872.64,886.45,1455.06,73603.00
872.58,886.40,1454.39,78281.00
872.53,886.34,1453.71,77345.00
872.48,886.29,1453.04,71204.00
872.43,886.24,1452.36,84009.00
872.38,886.18,1451.69,83454.00
872.32,886.13,1451.01,82431.00
872.27,886.08,1450.34,76816.00
872.22,886.02,1449.66,77896.00
872.17,885.97,1448.99,81707.00
872.12,885.92,1448.31,74288.00
872.06,885.86,1447.63,80061.00
872.01,885.81,1446.96,84099.00
871.96,885.76,1446.28,77459.00
871.91,885.70,1445.61,80036.00
871.85,885.65,1444.93,83294.00
871.80,885.60,1444.25,86177.00
871.75,885.55,1443.58,87692.00
871.70,885.49,1442.90,82001.00
871.65,885.44,1442.22,79431.00
871.59,885.39,1441.55,84006.00
871.54,885.33,1440.87,83090.00
871.49,885.28,1440.19,79949.00
871.44,885.23,1439.52,88403.00
871.39,885.17,1438.84,81255.00
871.33,885.12,1438.16,81962.00
871.28,885.07,1437.49,79372.00
871.23,885.01,1436.81,75905.00
871.18,884.96,1436.13,74037.00
871.13,884.91,1435.45,73887.00
871.07,884.85,1434.78,75098.00
871.02,884.80,1434.10,73480.00
870.97,884.75,1433.42,78660.00
870.92,884.69,1432.74,79110.00
870.86,884.64,1432.07,78383.00
870.81,884.59,1431.39,76767.00
870.76,884.53,1430.71,79352.00
870.71,884.48,1430.03,81102.00
870.66,884.43,1429.35,74170.00
870.60,884.38,1428.68,77810.00
870.55,884.32,1428.00,84781.00
870.50,884.27,1427.32,77585.00
870.45,884.22,1426.64,75205.00
870.40,884.16,1425.96,75697.00
870.34,884.11,1425.28,76666.00
870.29,884.06,1424.60,79822.00
870.24,884.00,1423.93,75346.00
870.19,883.95,1423.25,76932.00
870.14,883.90,1422.57,76478.00
870.08,883.84,1421.89,71056.00
870.03,883.79,1421.21,74229.00
869.98,883.74,1420.53,76309.00
869.93,883.68,1419.85,69167.00
869.87,883.63,1419.17,69860.00
869.82,883.58,1418.49,77440.00
869.77,883.52,1417.81,76698.00
869.72,883.47,1417.13,75887.00
869.67,883.42,1416.45,75463.00
869.61,883.37,1415.77,76022.00
869.56,883.31,1415.09,77658.00
869.51,883.26,1414.42,76586.00
869.46,883.21,1413.74,70384.00
869.41,883.15,1413.05,73608.00
869.35,883.10,1412.37,75590.00
869.30,883.05,1411.69,72146.00
869.25,882.99,1411.01,72981.00
869.20,882.94,1410.33,71527.00
869.15,882.89,1409.65,82533.00
869.09,882.83,1408.97,80187.00
869.04,882.78,1408.29,71693.00
868.99,882.73,1407.61,75817.00
868.94,882.67,1406.93,76865.00
868.89,882.62,1406.25,71905.00
868.83,882.57,1405.57,73847.00
868.78,882.51,1404.89,70496.00
868.73,882.46,1404.21,72548.00
868.68,882.41,1403.53,69417.00
868.62,882.35,1402.84,76127.00
868.57,882.30,1402.16,76439.00
868.52,882.25,1401.48,75874.00
868.47,882.20,1400.80,79809.00
868.42,882.14,1400.12,74659.00
868.36,882.09,1399.44,69076.00
868.31,882.04,1398.75,72760.00
868.26,881.98,1398.07,81267.00
868.21,881.93,1397.39,67546.00
868.16,881.88,1396.71,77520.00
868.10,881.82,1396.03,70322.00
868.05,881.77,1395.34,75733.00
868.00,881.72,1394.66,75933.00
867.95,881.66,1393.98,65076.00
867.90,881.61,1393.30,69543.00
867.84,881.56,1392.61,72416.00
867.79,881.50,1391.93,76596.00
867.74,881.45,1391.25,80088.00
867.69,881.40,1390.57,71183.00
867.63,881.34,1389.88,75251.00
867.58,881.29,1389.20,67806.00
867.53,881.24,1388.52,78460.00
867.48,881.19,1387.83,75615.00
867.43,881.13,1387.15,77069.00
867.37,881.08,1386.47,86479.00
867.32,881.03,1385.79,73751.00
867.27,880.97,1385.10,74422.00
867.22,880.92,1384.42,75871.00
867.17,880.87,1383.73,73697.00
867.11,880.81,1383.05,72820.00
867.06,880.76,1382.37,79299.00
867.01,880.71,1381.68,79568.00
866.96,880.65,1381.00,75759.00
866.91,880.60,1380.32,77471.00
866.85,880.55,1379.63,89936.00
866.80,880.49,1378.95,84572.00
866.75,880.44,1378.26,73740.00
866.70,880.39,1377.58,81285.00
866.64,880.33,1376.89,76020.00
866.59,880.28,1376.21,78260.00
866.54,880.23,1375.52,78757.00
866.49,880.17,1374.84,67526.00
866.44,880.12,1374.16,80687.00
866.38,880.07,1373.47,83245.00
866.33,880.02,1372.79,85708.00
866.28,879.96,1372.10,84430.00
866.23,879.91,1371.42,77357.00
866.18,879.86,1370.73,80677.00
866.12,879.80,1370.05,88377.00
866.07,879.75,1369.36,90729.00
866.02,879.70,1368.67,85275.00
865.97,879.64,1367.99,82506.00
865.92,879.59,1367.30,81684.00
865.86,879.54,1366.62,80649.00
865.81,879.48,1365.93,80577.00
865.76,879.43,1365.25,80513.00
865.71,879.38,1364.56,90386.00
865.66,879.32,1363.87,91633.00
865.60,879.27,1363.19,89865.00
865.55,879.22,1362.50,87588.00
865.50,879.16,1361.82,84733.00
865.45,879.11,1361.13,87251.00
865.39,879.06,1360.44,90022.00
865.34,879.00,1359.76,83334.00
865.29,878.95,1359.07,90433.00
865.24,878.90,1358.38,91708.00
865.19,878.85,1357.70,84253.00
865.13,878.79,1357.01,81143.00
865.08,878.74,1356.32,83235.00
865.03,878.69,1355.64,94309.00
864.98,878.63,1354.95,82359.00
864.93,878.58,1354.26,82999.00
864.87,878.53,1353.57,81810.00
864.82,878.47,1352.89,80981.00
864.77,878.42,1352.20,90342.00
864.72,878.37,1351.51,94951.00
864.67,878.31,1350.82,90381.00
864.61,878.26,1350.14,87301.00
864.56,878.21,1349.45,90666.00
864.51,878.15,1348.76,88088.00
864.46,878.10,1348.07,93435.00
864.40,878.05,1347.39,90259.00
864.35,877.99,1346.70,81190.00
864.30,877.94,1346.01,89047.00
864.25,877.89,1345.32,89260.00
864.20,877.84,1344.63,84050.00
864.14,877.78,1343.94,87189.00
864.09,877.73,1343.26,95616.00
864.04,877.68,1342.57,86069.00
863.99,877.62,1341.88,89277.00
863.94,877.57,1341.19,90954.00
863.88,877.52,1340.50,92854.00
863.83,877.46,1339.81,94248.00
863.78,877.41,1339.12,86206.00
863.73,877.36,1338.43,91314.00
863.68,877.30,1337.74,90063.00
863.62,877.25,1337.06,90833.00
863.57,877.20,1336.37,89160.00
863.52,877.14,1335.68,100278.00
863.47,877.09,1334.99,87318.00
863.41,877.04,1334.30,97243.00
863.36,876.98,1333.61,94464.00
863.31,876.93,1332.92,104070.00
863.26,876.88,1332.23,94787.00
863.21,876.82,1331.54,98551.00
863.15,876.77,1330.85,96948.00
863.10,876.72,1330.16,97045.00
863.05,876.67,1329.47,87772.00
863.00,876.61,1328.78,92483.00
862.95,876.56,1328.09,100218.00
862.89,876.51,1327.40,105288.00
862.84,876.45,1326.71,96936.00
862.79,876.40,1326.02,97172.00
862.74,876.35,1325.33,100552.00
862.69,876.29,1324.63,101887.00
862.63,876.24,1323.94,99220.00
862.58,876.19,1323.25,99281.00
862.53,876.13,1322.56,95103.00
862.48,876.08,1321.87,102427.00
862.43,876.03,1321.18,101582.00
862.37,875.97,1320.49,108383.00
862.32,875.92,1319.80,101977.00
862.27,875.87,1319.11,96779.00
862.22,875.81,1318.41,101640.00
862.16,875.76,1317.72,98630.00
862.11,875.71,1317.03,100967.00
862.06,875.66,1316.34,96478.00
862.01,875.60,1315.65,103718.00
861.96,875.55,1314.96,105061.00
861.90,875.50,1314.26,98978.00
861.85,875.44,1313.57,100027.00
861.80,875.39,1312.88,101114.00
861.75,875.34,1312.19,103068.00
861.70,875.28,1311.49,99098.00
861.64,875.23,1310.80,106029.00
861.59,875.18,1310.11,101748.00
861.54,875.12,1309.42,103442.00
861.49,875.07,1308.72,98983.00
861.44,875.02,1308.03,93980.00
861.38,874.96,1307.34,102458.00
861.33,874.91,1306.65,97250.00
861.28,874.86,1305.95,99808.00
861.23,874.80,1305.26,99715.00
861.17,874.75,1304.57,102876.00
861.12,874.70,1303.87,101940.00
861.07,874.64,1303.18,96341.00
861.02,874.59,1302.49,95528.00
860.97,874.54,1301.79,103243.00
860.91,874.49,1301.10,108712.00
860.86,874.43,1300.41,104688.00
860.81,874.38,1299.71,104307.00
860.76,874.33,1299.02,97154.00
860.71,874.27,1298.32,92543.00
860.65,874.22,1297.63,99915.00
860.60,874.17,1296.94,92072.00
860.55,874.11,1296.24,97435.00
860.50,874.06,1295.55,107020.00
860.45,874.01,1294.85,102335.00
860.39,873.95,1294.16,99824.00
860.34,873.90,1293.46,103906.00
860.29,873.85,1292.77,101263.00
860.24,873.79,1292.07,98126.00
860.18,873.74,1291.38,98156.00
860.13,873.69,1290.69,109299.00
860.08,873.63,1289.99,100828.00
860.03,873.58,1289.30,95116.00
859.98,873.53,1288.60,98048.00
859.92,873.48,1287.90,101077.00
859.87,873.42,1287.21,98923.00
859.82,873.37,1286.51,98482.00
859.77,873.32,1285.82,100188.00
859.72,873.26,1285.12,103148.00
859.66,873.21,1284.43,100386.00
859.61,873.16,1283.73,98695.00
859.56,873.10,1283.04,99738.00
859.51,873.05,1282.34,98093.00
859.46,873.00,1281.64,100787.00
859.40,872.94,1280.95,104295.00
859.35,872.89,1280.25,100150.00
859.30,872.84,1279.56,103715.00
859.25,872.78,1278.86,105125.00
859.20,872.73,1278.16,93709.00
859.14,872.68,1277.47,105001.00
859.09,872.62,1276.77,100299.00
859.04,872.57,1276.07,96680.00
858.99,872.52,1275.38,94554.00
858.93,872.46,1274.68,97830.00
858.88,872.41,1273.98,95993.00
858.83,872.36,1273.29,102001.00
858.78,872.31,1272.59,96354.00
858.73,872.25,1271.89,94914.00
858.67,872.20,1271.19,95385.00
858.62,872.15,1270.50,97198.00
858.57,872.09,1269.80,94314.00
858.52,872.04,1269.10,101736.00
858.47,871.99,1268.40,99576.00
858.41,871.93,1267.71,102011.00
858.36,871.88,1267.01,97683.00
858.31,871.83,1266.31,104443.00
858.26,871.77,1265.61,99235.00
858.21,871.72,1264.91,99519.00
858.15,871.67,1264.22,108598.00
858.10,871.61,1263.52,103713.00
858.05,871.56,1262.82,103213.00
858.00,871.51,1262.12,100042.00
857.94,871.45,1261.42,104308.00
857.89,871.40,1260.73,101471.00
857.84,871.35,1260.03,101597.00
857.79,871.30,1259.33,99769.00
857.74,871.24,1258.63,93451.00
857.68,871.19,1257.93,105138.00
857.63,871.14,1257.23,97597.00
857.58,871.08,1256.53,103534.00
857.53,871.03,1255.83,97883.00
857.48,870.98,1255.13,103472.00
857.42,870.92,1254.43,99396.00
857.37,870.87,1253.74,102246.00
857.32,870.82,1253.04,103416.00
857.27,870.76,1252.34,98560.00
857.22,870.71,1251.64,111486.00
857.16,870.66,1250.94,111758.00
857.11,870.60,1250.24,108451.00
857.06,870.55,1249.54,108358.00
857.01,870.50,1248.84,106776.00
856.95,870.44,1248.14,108023.00
856.90,870.39,1247.44,112621.00
856.85,870.34,1246.74,112270.00
856.80,870.28,1246.04,110156.00
856.75,870.23,1245.34,101974.00
856.69,870.18,1244.64,109996.00
856.64,870.13,1243.93,109726.00
856.59,870.07,1243.23,105189.00
856.54,870.02,1242.53,104202.00
856.49,869.97,1241.83,108055.00
856.43,869.91,1241.13,108210.00
856.38,869.86,1240.43,109395.00
856.33,869.81,1239.73,106779.00
856.28,869.75,1239.03,109686.00
856.23,869.70,1238.33,109577.00
856.17,869.65,1237.63,109588.00
856.12,869.59,1236.92,108717.00
856.07,869.54,1236.22,111318.00
856.02,869.49,1235.52,110987.00
855.97,869.43,1234.82,116637.00
855.91,869.38,1234.12,115068.00
855.86,869.33,1233.42,110577.00
855.81,869.27,1232.71,112023.00
855.76,869.22,1232.01,114836.00
855.70,869.17,1231.31,108525.00
855.65,869.11,1230.61,119322.00
855.60,869.06,1229.91,122271.00
855.55,869.01,1229.20,116733.00
855.50,868.96,1228.50,115411.00
855.44,868.90,1227.80,116967.00
855.39,868.85,1227.10,113112.00
855.34,868.80,1226.39,121602.00
855.29,868.74,1225.69,120400.00
855.24,868.69,1224.99,121241.00
855.18,868.64,1224.28,126017.00
855.13,868.58,1223.58,124100.00
855.08,868.53,1222.88,116937.00
855.03,868.48,1222.17,119460.00
854.98,868.42,1221.47,129786.00
854.92,868.37,1220.77,135665.00
854.87,868.32,1220.06,124959.00
854.82,868.26,1219.36,127136.00
854.77,868.21,1218.66,126364.00
854.71,868.16,1217.95,132141.00
854.66,868.10,1217.25,134135.00
854.61,868.05,1216.55,128859.00
854.56,868.00,1215.84,133776.00
854.51,867.95,1215.14,118928.00
854.45,867.89,1214.43,139210.00
854.40,867.84,1213.73,136450.00
854.35,867.79,1213.02,136232.00
854.30,867.73,1212.32,131586.00
854.25,867.68,1211.62,138237.00
854.19,867.63,1210.91,135384.00
854.14,867.57,1210.21,144951.00
854.09,867.52,1209.50,136842.00
854.04,867.47,1208.80,139759.00
853.99,867.41,1208.09,144541.00
853.93,867.36,1207.39,144896.00
853.88,867.31,1206.68,145346.00
853.83,867.25,1205.98,152844.00
853.78,867.20,1205.27,148860.00
853.72,867.15,1204.57,151994.00
853.67,867.09,1203.86,146906.00
853.62,867.04,1203.15,149860.00
853.57,866.99,1202.45,155053.00
853.52,866.93,1201.74,148106.00
853.46,866.88,1201.04,142469.00
853.41,866.83,1200.33,150373.00
853.36,866.78,1199.63,160251.00
853.31,866.72,1198.92,156099.00
853.26,866.67,1198.21,153661.00
853.20,866.62,1197.51,166623.00
853.15,866.56,1196.80,157645.00
853.10,866.51,1196.09,160521.00
853.05,866.46,1195.39,167177.00
853.00,866.40,1194.68,164453.00
852.94,866.35,1193.97,158467.00
852.89,866.30,1193.27,158825.00
852.84,866.24,1192.56,168543.00
852.79,866.19,1191.85,161063.00
852.74,866.14,1191.15,164085.00
852.68,866.08,1190.44,164646.00
852.63,866.03,1189.73,173424.00
852.58,865.98,1189.02,159345.00
852.53,865.92,1188.32,168165.00
852.47,865.87,1187.61,158136.00
852.42,865.82,1186.90,168565.00
852.37,865.77,1186.19,159587.00
852.32,865.71,1185.49,167675.00
852.27,865.66,1184.78,168816.00
852.21,865.61,1184.07,166634.00
852.16,865.55,1183.36,161667.00
852.11,865.50,1182.65,177100.00
852.06,865.45,1181.95,168942.00
852.01,865.39,1181.24,165669.00
851.95,865.34,1180.53,174157.00
851.90,865.29,1179.82,174010.00
851.85,865.23,1179.11,167139.00
851.80,865.18,1178.40,172695.00
851.75,865.13,1177.70,165075.00
851.69,865.07,1176.99,175498.00
851.64,865.02,1176.28,172068.00
851.59,864.97,1175.57,163978.00
851.54,864.91,1174.86,163135.00
851.48,864.86,1174.15,157628.00
851.43,864.81,1173.44,160116.00
851.38,864.75,1172.73,152216.00
851.33,864.70,1172.02,157289.00
851.28,864.65,1171.31,151525.00
851.22,864.60,1170.60,152962.00
851.17,864.54,1169.89,159507.00
851.12,864.49,1169.18,151906.00
851.07,864.44,1168.47,150029.00
851.02,864.38,1167.77,151553.00
850.96,864.33,1167.06,154304.00
850.91,864.28,1166.34,147362.00
850.86,864.22,1165.63,143362.00
850.81,864.17,1164.92,150577.00
850.76,864.12,1164.21,143948.00
850.70,864.06,1163.50,146032.00
850.65,864.01,1162.79,137975.00
850.60,863.96,1162.08,148008.00
850.55,863.90,1161.37,147398.00
850.49,863.85,1160.66,141478.00
850.44,863.80,1159.95,152248.00
850.39,863.74,1159.24,141809.00
850.34,863.69,1158.53,141886.00
850.29,863.64,1157.82,145771.00
850.23,863.59,1157.11,145330.00
850.18,863.53,1156.39,144503.00
850.13,863.48,1155.68,141638.00
850.08,863.43,1154.97,145931.00
850.03,863.37,1154.26,147344.00
849.97,863.32,1153.55,153099.00
849.92,863.27,1152.84,143528.00
849.87,863.21,1152.12,147231.00
849.82,863.16,1151.41,137669.00
849.77,863.11,1150.70,147978.00
849.71,863.05,1149.99,148211.00
849.66,863.00,1149.28,149551.00
849.61,862.95,1148.56,134984.00
849.56,862.89,1147.85,145806.00
849.51,862.84,1147.14,139301.00
849.45,862.79,1146.43,132047.00
849.40,862.73,1145.71,133858.00
849.35,862.68,1145.00,140335.00
849.30,862.63,1144.29,128762.00
849.24,862.57,1143.58,130276.00
849.19,862.52,1142.86,132946.00
849.14,862.47,1142.15,128393.00
849.09,862.42,1141.44,138509.00
849.04,862.36,1140.72,124997.00
848.98,862.31,1140.01,128056.00
848.93,862.26,1139.30,128687.00
848.88,862.20,1138.58,130146.00
848.83,862.15,1137.87,129850.00
848.78,862.10,1137.16,127399.00
848.72,862.04,1136.44,122100.00
848.67,861.99,1135.73,130161.00
848.62,861.94,1135.01,122356.00
848.57,861.88,1134.30,111305.00
848.52,861.83,1133.59,116105.00
848.46,861.78,1132.87,121427.00
848.41,861.72,1132.16,127065.00
848.36,861.67,1131.44,117898.00
848.31,861.62,1130.73,115571.00
848.25,861.56,1130.01,114786.00
848.20,861.51,1129.30,117355.00
848.15,861.46,1128.58,110950.00
848.10,861.41,1127.87,119143.00
848.05,861.35,1127.15,117189.00
847.99,861.30,1126.44,116339.00
847.94,861.25,1125.72,125507.00
847.89,861.19,1125.01,116509.00
847.84,861.14,1124.29,123214.00
847.79,861.09,1123.58,114104.00
847.73,861.03,1122.86,123923.00
847.68,860.98,1122.15,119803.00
847.63,860.93,1121.43,123300.00
847.58,860.87,1120.72,117829.00
847.53,860.82,1120.00,111274.00
847.47,860.77,1119.28,123714.00
847.42,860.71,1118.57,121683.00
847.37,860.66,1117.85,121835.00
847.32,860.61,1117.14,120827.00
847.26,860.55,1116.42,118516.00
847.21,860.50,1115.70,116847.00
847.16,860.45,1114.99,116276.00
847.11,860.39,1114.27,113793.00
847.06,860.34,1113.55,115167.00
847.00,860.29,1112.84,119486.00
846.95,860.24,1112.12,110925.00
846.90,860.18,1111.40,117187.00
846.85,860.13,1110.69,112708.00
846.80,860.08,1109.97,116640.00
846.74,860.02,1109.25,123341.00
846.69,859.97,1108.54,116480.00
846.64,859.92,1107.82,116336.00
846.59,859.86,1107.10,121528.00
846.54,859.81,1106.38,123567.00
846.48,859.76,1105.67,116802.00
846.43,859.70,1104.95,114269.00
846.38,859.65,1104.23,122941.00
846.33,859.60,1103.51,117787.00
846.28,859.54,1102.79,128377.00
846.22,859.49,1102.08,119120.00
846.17,859.44,1101.36,120273.00
846.12,859.38,1100.64,114649.00
846.07,859.33,1099.92,122120.00
846.01,859.28,1099.20,118668.00
845.96,859.23,1098.49,117166.00
845.91,859.17,1097.77,136471.00
845.86,859.12,1097.05,124685.00
845.81,859.07,1096.33,121568.00
845.75,859.01,1095.61,118403.00
845.70,858.96,1094.89,118936.00
845.65,858.91,1094.17,123848.00
845.60,858.85,1093.45,124520.00
845.55,858.80,1092.73,122957.00
845.49,858.75,1092.02,122642.00
845.44,858.69,1091.30,126415.00
845.39,858.64,1090.58,126108.00
845.34,858.59,1089.86,121395.00
845.29,858.53,1089.14,123607.00
845.23,858.48,1088.42,125218.00
845.18,858.43,1087.70,121690.00
845.13,858.37,1086.98,124552.00
845.08,858.32,1086.26,124047.00
845.02,858.27,1085.54,125796.00
844.97,858.21,1084.82,122325.00
844.92,858.16,1084.10,125285.00
844.87,858.11,1083.38,127051.00
844.82,858.06,1082.66,122757.00
844.76,858.00,1081.94,130811.00
844.71,857.95,1081.22,128482.00
844.66,857.90,1080.49,122538.00
844.61,857.84,1079.77,125802.00
844.56,857.79,1079.05,127562.00
844.50,857.74,1078.33,124654.00
844.45,857.68,1077.61,123240.00
844.40,857.63,1076.89,118771.00
844.35,857.58,1076.17,120154.00
844.30,857.52,1075.45,126213.00
844.24,857.47,1074.73,117813.00
844.19,857.42,1074.00,116235.00
844.14,857.36,1073.28,128818.00
844.09,857.31,1072.56,125880.00
844.03,857.26,1071.84,119251.00
843.98,857.20,1071.12,118105.00
843.93,857.15,1070.40,126022.00
843.88,857.10,1069.67,127980.00
843.83,857.04,1068.95,128242.00
843.77,856.99,1068.23,128164.00
843.72,856.94,1067.51,133433.00
843.67,856.89,1066.78,127758.00
843.62,856.83,1066.06,134958.00
843.57,856.78,1065.34,135579.00
843.51,856.73,1064.62,134738.00
843.46,856.67,1063.89,128963.00
843.41,856.62,1063.17,132600.00
843.36,856.57,1062.45,127269.00
843.31,856.51,1061.73,131877.00
843.25,856.46,1061.00,134126.00
843.20,856.41,1060.28,129570.00
843.15,856.35,1059.56,131383.00
843.10,856.30,1058.83,130019.00
843.05,856.25,1058.11,127750.00
842.99,856.19,1057.39,130880.00
842.94,856.14,1056.66,133630.00
842.89,856.09,1055.94,132971.00
842.84,856.03,1055.21,138327.00
842.78,855.98,1054.49,131408.00
842.73,855.93,1053.77,136471.00
842.68,855.88,1053.04,133754.00
842.63,855.82,1052.32,137362.00
842.58,855.77,1051.59,132635.00
842.52,855.72,1050.87,126281.00
842.47,855.66,1050.14,122839.00
842.42,855.61,1049.42,130396.00
842.37,855.56,1048.70,140424.00
842.32,855.50,1047.97,132457.00
842.26,855.45,1047.25,133865.00
842.21,855.40,1046.52,133109.00
842.16,855.34,1045.80,134820.00
842.11,855.29,1045.07,140060.00
842.06,855.24,1044.35,141063.00
842.00,855.18,1043.62,128517.00
841.95,855.13,1042.90,131848.00
841.90,855.08,1042.17,133433.00
841.85,855.02,1041.44,130710.00
841.79,854.97,1040.72,144362.00
841.74,854.92,1039.99,145078.00
841.69,854.86,1039.27,138537.00
841.64,854.81,1038.54,142227.00
841.59,854.76,1037.82,155615.00
841.53,854.71,1037.09,150402.00
841.48,854.65,1036.36,160728.00
841.43,854.60,1035.64,156623.00
841.38,854.55,1034.91,159432.00
841.33,854.49,1034.18,176510.00
841.27,854.44,1033.46,170379.00
841.22,854.39,1032.73,181633.00
841.17,854.33,1032.00,177407.00
841.12,854.28,1031.28,188467.00
841.07,854.23,1030.55,192231.00
841.01,854.17,1029.82,195250.00
840.96,854.12,1029.10,194066.00
840.91,854.07,1028.37,195437.00
840.86,854.01,1027.64,200258.00
840.80,853.96,1026.91,194174.00
840.75,853.91,1026.19,205503.00
840.70,853.85,1025.46,206628.00
840.65,853.80,1024.73,195971.00
840.60,853.75,1024.00,196791.00
840.54,853.70,1023.28,188746.00
840.49,853.64,1022.55,205878.00
840.44,853.59,1021.82,194244.00
840.39,853.54,1021.09,193304.00
840.34,853.48,1020.36,193525.00
840.28,853.43,1019.64,191379.00
840.23,853.38,1018.91,187380.00
840.18,853.32,1018.18,194134.00
840.13,853.27,1017.45,179595.00
840.08,853.22,1016.72,190888.00
840.02,853.16,1015.99,175454.00
839.97,853.11,1015.26,177831.00
839.92,853.06,1014.54,183145.00
839.87,853.00,1013.81,180992.00
839.82,852.95,1013.08,167297.00
839.76,852.90,1012.35,178509.00
839.71,852.84,1011.62,197058.00
839.66,852.79,1010.89,190480.00
839.61,852.74,1010.16,190418.00
839.55,852.68,1009.43,197561.00
839.50,852.63,1008.70,202057.00
839.45,852.58,1007.97,198396.00
839.40,852.53,1007.24,203209.00
839.35,852.47,1006.51,210086.00
839.29,852.42,1005.78,212066.00
839.24,852.37,1005.05,227900.00
839.19,852.31,1004.32,237067.00
839.14,852.26,1003.59,248104.00
839.09,852.21,1002.86,257626.00
839.03,852.15,1002.13,255909.00
838.98,852.10,1001.40,258837.00
838.93,852.05,1000.67,264262.00
838.88,851.99,999.94,268507.00
838.83,851.94,999.21,271352.00
838.77,851.89,998.48,277164.00
838.72,851.83,997.75,269850.00
838.67,851.78,997.01,278570.00
838.62,851.73,996.28,269904.00
838.56,851.67,995.55,273263.00
838.51,851.62,994.82,274604.00
838.46,851.57,994.09,261694.00
838.41,851.52,993.36,246261.00
838.36,851.46,992.63,244851.00
838.30,851.41,991.89,244610.00
838.25,851.36,991.16,238172.00
838.20,851.30,990.43,232815.00
838.15,851.25,989.70,219735.00
838.10,851.20,988.97,208989.00
838.04,851.14,988.23,209157.00
837.99,851.09,987.50,199391.00
837.94,851.04,986.77,190119.00
837.89,850.98,986.04,191905.00
837.84,850.93,985.31,185612.00
837.78,850.88,984.57,174113.00
837.73,850.82,983.84,166490.00
837.68,850.77,983.11,168958.00
837.63,850.72,982.37,166058.00
837.57,850.66,981.64,174683.00
837.52,850.61,980.91,157720.00
837.47,850.56,980.17,167000.00
837.42,850.50,979.44,163918.00
837.37,850.45,978.71,157271.00
837.31,850.40,977.97,158162.00
837.26,850.35,977.24,148474.00
837.21,850.29,976.51,157425.00
837.16,850.24,975.77,142427.00
837.11,850.19,975.04,149670.00
837.05,850.13,974.31,153704.00
837.00,850.08,973.57,150736.00
836.95,850.03,972.84,150217.00
836.90,849.97,972.10,152181.00
836.85,849.92,971.37,153736.00
836.79,849.87,970.64,144868.00
836.74,849.81,969.90,137983.00
836.69,849.76,969.17,141877.00
836.64,849.71,968.43,148762.00
836.59,849.65,967.70,148483.00
836.53,849.60,966.96,150887.00
836.48,849.55,966.23,154692.00
836.43,849.49,965.49,152294.00
836.38,849.44,964.76,138334.00
836.32,849.39,964.02,150074.00
836.27,849.34,963.29,143009.00
836.22,849.28,962.55,141228.00
836.17,849.23,961.82,140655.00
836.12,849.18,961.08,147950.00
836.06,849.12,960.34,136368.00
836.01,849.07,959.61,141460.00
835.96,849.02,958.87,140809.00
835.91,848.96,958.14,148641.00
835.86,848.91,957.40,125338.00
835.80,848.86,956.66,129599.00
835.75,848.80,955.93,130040.00
835.70,848.75,955.19,127709.00
835.65,848.70,954.46,128487.00
835.60,848.64,953.72,126759.00
835.54,848.59,952.98,127619.00
835.49,848.54,952.25,127669.00
835.44,848.48,951.51,121717.00
835.39,848.43,950.77,112188.00
835.33,848.38,950.04,110767.00
835.28,848.32,949.30,115954.00
835.23,848.27,948.56,116463.00
835.18,848.22,947.82,115701.00
835.13,848.17,947.09,121852.00
835.07,848.11,946.35,111879.00
835.02,848.06,945.61,114130.00
834.97,848.01,944.87,121897.00
834.92,847.95,944.14,120144.00
834.87,847.90,943.40,115295.00
834.81,847.85,942.66,116359.00
834.76,847.79,941.92,113518.00
834.71,847.74,941.18,124074.00
834.66,847.69,940.45,109719.00
834.61,847.63,939.71,120234.00
834.55,847.58,938.97,109058.00
834.50,847.53,938.23,109965.00
834.45,847.47,937.49,121683.00
834.40,847.42,936.75,113628.00
834.34,847.37,936.02,113125.00
834.29,847.31,935.28,119836.00
834.24,847.26,934.54,109972.00
834.19,847.21,933.80,112478.00
834.14,847.16,933.06,117827.00
834.08,847.10,932.32,114269.00
834.03,847.05,931.58,117502.00
833.98,847.00,930.84,126823.00
833.93,846.94,930.10,116850.00
833.88,846.89,929.36,114533.00
833.82,846.84,928.62,111853.00
833.77,846.78,927.88,107513.00
833.72,846.73,927.14,119057.00
833.67,846.68,926.40,115284.00
833.62,846.62,925.66,109577.00
833.56,846.57,924.92,107746.00
833.51,846.52,924.18,118293.00
833.46,846.46,923.44,116519.00
833.41,846.41,922.70,117108.00
833.36,846.36,921.96,118567.00
833.30,846.30,921.22,114999.00
833.25,846.25,920.48,117890.00
833.20,846.20,919.74,116556.00
833.15,846.14,919.00,121006.00
833.09,846.09,918.26,116147.00
833.04,846.04,917.52,124848.00
832.99,845.99,916.78,117237.00
832.94,845.93,916.04,125693.00
832.89,845.88,915.29,127106.00
832.83,845.83,914.55,116879.00
832.78,845.77,913.81,116004.00
832.73,845.72,913.07,118027.00
832.68,845.67,912.33,121196.00
832.63,845.61,911.59,114709.00
832.57,845.56,910.84,117881.00
832.52,845.51,910.10,116760.00
832.47,845.45,909.36,114545.00
832.42,845.40,908.62,119054.00
832.37,845.35,907.88,114774.00
832.31,845.29,907.13,120108.00
832.26,845.24,906.39,120009.00
832.21,845.19,905.65,124595.00
832.16,845.13,904.91,121269.00
832.10,845.08,904.16,127200.00
832.05,845.03,903.42,118117.00
832.00,844.97,902.68,127250.00
831.95,844.92,901.93,130474.00
831.90,844.87,901.19,118357.00
831.84,844.82,900.45,125143.00
831.79,844.76,899.70,126712.00
831.74,844.71,898.96,126777.00
831.69,844.66,898.22,119931.00
831.64,844.60,897.47,119239.00
831.58,844.55,896.73,119465.00
831.53,844.50,895.99,121633.00
831.48,844.44,895.24,128100.00
831.43,844.39,894.50,112607.00
831.38,844.34,893.76,120637.00
831.32,844.28,893.01,118458.00
831.27,844.23,892.27,121835.00
831.22,844.18,891.52,114941.00
831.17,844.12,890.78,128680.00
831.11,844.07,890.03,113663.00
831.06,844.02,889.29,124659.00
831.01,843.96,888.54,122291.00
830.96,843.91,887.80,124790.00
830.91,843.86,887.05,132348.00
830.85,843.81,886.31,114029.00
830.80,843.75,885.56,124570.00
830.75,843.70,884.82,122458.00
830.70,843.65,884.07,118052.00
830.65,843.59,883.33,125833.00
830.59,843.54,882.58,122226.00
830.54,843.49,881.84,126285.00
830.49,843.43,881.09,126465.00
830.44,843.38,880.35,121429.00
830.39,843.33,879.60,125575.00
830.33,843.27,878.85,123926.00
830.28,843.22,878.11,127394.00
830.23,843.17,877.36,125023.00
830.18,843.11,876.62,129322.00
830.13,843.06,875.87,124192.00
830.07,843.01,875.12,123353.00
830.02,842.95,874.38,129524.00
829.97,842.90,873.63,138591.00
829.92,842.85,872.88,138073.00
829.86,842.79,872.14,122623.00
829.81,842.74,871.39,129487.00
829.76,842.69,870.64,127264.00
829.71,842.64,869.90,125066.00
829.66,842.58,869.15,124320.00
829.60,842.53,868.40,136538.00
829.55,842.48,867.66,131628.00
829.50,842.42,866.91,132727.00
829.45,842.37,866.16,139309.00
829.40,842.32,865.41,128094.00
829.34,842.26,864.66,129507.00
829.29,842.21,863.92,130913.00
829.24,842.16,863.17,128391.00
829.19,842.10,862.42,134119.00
829.14,842.05,861.67,131664.00
829.08,842.00,860.93,135259.00
829.03,841.94,860.18,136025.00
828.98,841.89,859.43,130831.00
828.93,841.84,858.68,129614.00
828.87,841.78,857.93,135785.00
828.82,841.73,857.18,136796.00
828.77,841.68,856.43,133457.00
828.72,841.63,855.69,124195.00
828.67,841.57,854.94,130476.00
828.61,841.52,854.19,136551.00
828.56,841.47,853.44,145848.00
828.51,841.41,852.69,142642.00
828.46,841.36,851.94,130217.00
828.41,841.31,851.19,135539.00
828.35,841.25,850.44,141514.00
828.30,841.20,849.69,144205.00
828.25,841.15,848.94,147859.00
828.20,841.09,848.19,138335.00
828.15,841.04,847.44,139178.00
828.09,840.99,846.69,137281.00
828.04,840.93,845.94,151712.00
827.99,840.88,845.19,139566.00
827.94,840.83,844.44,141378.00
827.88,840.77,843.69,145685.00
827.83,840.72,842.94,140873.00
827.78,840.67,842.19,133392.00
827.73,840.61,841.44,146754.00
827.68,840.56,840.69,149032.00
827.62,840.51,839.94,150380.00
827.57,840.46,839.19,134575.00
827.52,840.40,838.44,141349.00
827.47,840.35,837.68,140163.00
827.42,840.30,836.93,146723.00
827.36,840.24,836.18,147041.00
827.31,840.19,835.43,154467.00
827.26,840.14,834.68,147547.00
827.21,840.08,833.93,146539.00
827.16,840.03,833.18,141368.00
827.10,839.98,832.42,148146.00
827.05,839.92,831.67,148101.00
827.00,839.87,830.92,143269.00
826.95,839.82,830.17,155903.00
826.90,839.76,829.42,140695.00
826.84,839.71,828.66,151968.00
826.79,839.66,827.91,148488.00
826.74,839.60,827.16,153697.00
826.69,839.55,826.41,148317.00
826.63,839.50,825.65,159586.00
826.58,839.45,824.90,151479.00
826.53,839.39,824.15,154474.00
826.48,839.34,823.40,146198.00
826.43,839.29,822.64,149489.00
826.37,839.23,821.89,162368.00
826.32,839.18,821.14,157994.00
826.27,839.13,820.38,155185.00
826.22,839.07,819.63,149283.00
826.17,839.02,818.88,147304.00
826.11,838.97,818.12,163371.00
826.06,838.91,817.37,153747.00
826.01,838.86,816.62,156846.00
825.96,838.81,815.86,150128.00
825.91,838.75,815.11,160187.00
825.85,838.70,814.35,167184.00
825.80,838.65,813.60,160774.00
825.75,838.59,812.85,166843.00
825.70,838.54,812.09,160207.00
825.64,838.49,811.34,175124.00
825.59,838.43,810.58,155814.00
825.54,838.38,809.83,157381.00
825.49,838.33,809.07,165364.00
825.44,838.28,808.32,159447.00
825.38,838.22,807.56,166031.00
825.33,838.17,806.81,168184.00
825.28,838.12,806.05,167892.00
825.23,838.06,805.30,153425.00
825.18,838.01,804.54,154068.00
825.12,837.96,803.79,169220.00
825.07,837.90,803.03,173310.00
825.02,837.85,802.28,166662.00
824.97,837.80,801.52,168490.00
824.92,837.74,800.76,169711.00
824.86,837.69,800.01,172951.00
824.81,837.64,799.25,163903.00
824.76,837.58,798.50,166432.00
824.71,837.53,797.74,180197.00
824.65,837.48,796.98,178475.00
824.60,837.42,796.23,169613.00
824.55,837.37,795.47,181233.00
824.50,837.32,794.71,169877.00
824.45,837.27,793.96,178352.00
824.39,837.21,793.20,175851.00
824.34,837.16,792.44,170885.00
824.29,837.11,791.69,176751.00
824.24,837.05,790.93,180040.00
824.19,837.00,790.17,172700.00
824.13,836.95,789.42,177269.00
824.08,836.89,788.66,181275.00
824.03,836.84,787.90,168913.00
823.98,836.79,787.14,161570.00
823.93,836.73,786.39,169587.00
823.87,836.68,785.63,174332.00
823.82,836.63,784.87,178384.00
823.77,836.57,784.11,169183.00
823.72,836.52,783.35,167603.00
823.67,836.47,782.60,176437.00
823.61,836.41,781.84,164411.00
823.56,836.36,781.08,181737.00
823.51,836.31,780.32,172422.00
823.46,836.25,779.56,174876.00
823.40,836.20,778.80,162273.00
823.35,836.15,778.05,173483.00
823.30,836.10,777.29,166121.00
823.25,836.04,776.53,166507.00
823.20,835.99,775.77,168834.00
823.14,835.94,775.01,170923.00
823.09,835.88,774.25,173551.00
823.04,835.83,773.49,170302.00
822.99,835.78,772.73,162554.00
822.94,835.72,771.97,167601.00
822.88,835.67,771.21,159680.00
822.83,835.62,770.45,163601.00
822.78,835.56,769.69,158635.00
822.73,835.51,768.93,169751.00
822.68,835.46,768.17,161233.00
822.62,835.40,767.41,167585.00
822.57,835.35,766.65,164867.00
822.52,835.30,765.89,169045.00
822.47,835.24,765.13,179534.00
822.41,835.19,764.37,170056.00
822.36,835.14,763.61,172152.00
822.31,835.09,762.85,173493.00
822.26,835.03,762.09,178841.00
822.21,834.98,761.33,175916.00
822.15,834.93,760.57,168971.00
822.10,834.87,759.81,169851.00
822.05,834.82,759.05,180940.00
822.00,834.77,758.29,173931.00
821.95,834.71,757.53,167980.00
821.89,834.66,756.76,175693.00
821.84,834.61,756.00,176038.00
821.79,834.55,755.24,174998.00
821.74,834.50,754.48,171478.00
821.69,834.45,753.72,168527.00
821.63,834.39,752.96,169364.00
821.58,834.34,752.19,168018.00
821.53,834.29,751.43,162246.00
821.48,834.23,750.67,170563.00
821.42,834.18,749.91,172048.00
821.37,834.13,749.14,166112.00
821.32,834.07,748.38,168127.00
821.27,834.02,747.62,165031.00
821.22,833.97,746.86,164477.00
821.16,833.92,746.09,164194.00
821.11,833.86,745.33,154742.00
821.06,833.81,744.57,165651.00
821.01,833.76,743.81,164112.00
820.96,833.70,743.04,165546.00
820.90,833.65,742.28,165369.00
820.85,833.60,741.52,164564.00
820.80,833.54,740.75,160054.00
820.75,833.49,739.99,169436.00
820.70,833.44,739.23,155329.00
820.64,833.38,738.46,166274.00
820.59,833.33,737.70,171734.00
820.54,833.28,736.93,165001.00
820.49,833.22,736.17,163679.00
820.44,833.17,735.41,171837.00
820.38,833.12,734.64,164450.00
820.33,833.06,733.88,165550.00
820.28,833.01,733.11,160209.00
820.23,832.96,732.35,167501.00
820.17,832.90,731.58,160517.00
820.12,832.85,730.82,153183.00
820.07,832.80,730.05,154937.00
820.02,832.75,729.29,165701.00
819.97,832.69,728.52,159800.00
819.91,832.64,727.76,163139.00
819.86,832.59,726.99,167134.00
819.81,832.53,726.23,160206.00
819.76,832.48,725.46,167065.00
819.71,832.43,724.70,160311.00
819.65,832.37,723.93,163718.00
819.60,832.32,723.17,161587.00
819.55,832.27,722.40,157646.00
819.50,832.21,721.64,166976.00
819.45,832.16,720.87,163383.00
819.39,832.11,720.10,168206.00
819.34,832.05,719.34,158295.00
819.29,832.00,718.57,160872.00
819.24,831.95,717.80,169277.00
819.18,831.89,717.04,155032.00
819.13,831.84,716.27,157330.00
819.08,831.79,715.50,150869.00
819.03,831.74,714.74,163877.00
818.98,831.68,713.97,165939.00
818.92,831.63,713.20,156363.00
818.87,831.58,712.44,166691.00
818.82,831.52,711.67,162633.00
818.77,831.47,710.90,163723.00
818.72,831.42,710.14,150320.00
818.66,831.36,709.37,163400.00
818.61,831.31,708.60,161912.00
818.56,831.26,707.83,161311.00
818.51,831.20,707.07,167675.00
818.46,831.15,706.30,163597.00
818.40,831.10,705.53,154909.00
818.35,831.04,704.76,158496.00
818.30,830.99,703.99,159916.00
818.25,830.94,703.23,160994.00
818.19,830.88,702.46,160351.00
818.14,830.83,701.69,154852.00
818.09,830.78,700.92,152566.00
818.04,830.72,700.15,156690.00
817.99,830.67,699.38,155207.00
817.93,830.62,698.61,162243.00
817.88,830.57,697.85,162632.00
817.83,830.51,697.08,163357.00
817.78,830.46,696.31,154861.00
817.73,830.41,695.54,156829.00
817.67,830.35,694.77,166448.00
817.62,830.30,694.00,154086.00
817.57,830.25,693.23,163942.00
817.52,830.19,692.46,158806.00
817.47,830.14,691.69,161285.00
817.41,830.09,690.92,150287.00
817.36,830.03,690.15,151607.00
817.31,829.98,689.38,156993.00
817.26,829.93,688.61,153579.00
817.21,829.87,687.84,150319.00
817.15,829.82,687.07,159996.00
817.10,829.77,686.30,151528.00
817.05,829.71,685.53,153160.00
817.00,829.66,684.76,151658.00
816.94,829.61,683.99,158219.00
816.89,829.56,683.22,153679.00
816.84,829.50,682.45,155951.00
816.79,829.45,681.68,154720.00
816.74,829.40,680.90,156550.00
816.68,829.34,680.13,158314.00
816.63,829.29,679.36,154008.00
816.58,829.24,678.59,151750.00
816.53,829.18,677.82,148533.00
816.48,829.13,677.05,155384.00
816.42,829.08,676.28,154886.00
816.37,829.02,675.50,153902.00
816.32,828.97,674.73,156090.00
816.27,828.92,673.96,152586.00
816.22,828.86,673.19,168195.00
816.16,828.81,672.42,153522.00
816.11,828.76,671.64,155558.00
816.06,828.70,670.87,155900.00
816.01,828.65,670.10,153192.00
815.95,828.60,669.33,155632.00
815.90,828.54,668.55,155952.00
815.85,828.49,667.78,150627.00
815.80,828.44,667.01,156351.00
815.75,828.39,666.24,157640.00
815.69,828.33,665.46,166775.00
815.64,828.28,664.69,157685.00
815.59,828.23,663.92,168391.00
815.54,828.17,663.14,163014.00
815.49,828.12,662.37,164381.00
815.43,828.07,661.60,157415.00
815.38,828.01,660.82,169203.00
815.33,827.96,660.05,160897.00
815.28,827.91,659.27,157521.00
815.23,827.85,658.50,162141.00
815.17,827.80,657.73,158811.00
815.12,827.75,656.95,162197.00
815.07,827.69,656.18,158981.00
815.02,827.64,655.40,153696.00
814.96,827.59,654.63,152199.00
814.91,827.53,653.85,154362.00
814.86,827.48,653.08,165030.00
814.81,827.43,652.30,154416.00
814.76,827.38,651.53,158103.00
814.70,827.32,650.76,155238.00
814.65,827.27,649.98,159791.00
814.60,827.22,649.20,165474.00
814.55,827.16,648.43,162422.00
814.50,827.11,647.65,164680.00
814.44,827.06,646.88,168829.00
814.39,827.00,646.10,156159.00
814.34,826.95,645.33,158142.00
814.29,826.90,644.55,156798.00
814.24,826.84,643.78,164695.00
814.18,826.79,643.00,160353.00
814.13,826.74,642.22,172782.00
814.08,826.68,641.45,168989.00
814.03,826.63,640.67,165885.00
813.97,826.58,639.90,163363.00
813.92,826.52,639.12,162764.00
813.87,826.47,638.34,167570.00
813.82,826.42,637.57,161454.00
813.77,826.36,636.79,162704.00
813.71,826.31,636.01,171428.00
813.66,826.26,635.24,167264.00
813.61,826.21,634.46,167811.00
813.56,826.15,633.68,171250.00
813.51,826.10,632.90,168588.00
813.45,826.05,632.13,177075.00
813.40,825.99,631.35,169397.00
813.35,825.94,630.57,174451.00
813.30,825.89,629.79,167192.00
813.25,825.83,629.02,177544.00
813.19,825.78,628.24,184462.00
813.14,825.73,627.46,183586.00
813.09,825.67,626.68,183728.00
813.04,825.62,625.90,186532.00
812.99,825.57,625.13,193334.00
812.93,825.51,624.35,192337.00
812.88,825.46,623.57,192588.00
812.83,825.41,622.79,184331.00
812.78,825.35,622.01,184743.00
812.72,825.30,621.23,181693.00
812.67,825.25,620.45,188489.00
812.62,825.20,619.68,188819.00
812.57,825.14,618.90,190238.00
812.52,825.09,618.12,183516.00
812.46,825.04,617.34,183198.00
812.41,824.98,616.56,190198.00
812.36,824.93,615.78,175604.00
812.31,824.88,615.00,178095.00
812.26,824.82,614.22,170751.00
812.20,824.77,613.44,173169.00
812.15,824.72,612.66,180221.00
812.10,824.66,611.88,167286.00
812.05,824.61,611.10,179932.00
812.00,824.56,610.32,170274.00
811.94,824.50,609.54,185063.00
811.89,824.45,608.76,159646.00
811.84,824.40,607.98,175281.00
811.79,824.34,607.20,164333.00
811.73,824.29,606.42,179587.00
811.68,824.24,605.64,160071.00
811.63,824.18,604.86,176076.00
811.58,824.13,604.08,165371.00
811.53,824.08,603.29,176704.00
811.47,824.03,602.51,165202.00
811.42,823.97,601.73,170594.00
811.37,823.92,600.95,165583.00
811.32,823.87,600.17,170276.00
811.27,823.81,599.39,172665.00
811.21,823.76,598.61,170154.00
811.16,823.71,597.82,167352.00
811.11,823.65,597.04,175514.00
811.06,823.60,596.26,165559.00
811.01,823.55,595.48,166092.00
810.95,823.49,594.70,173866.00
810.90,823.44,593.91,164266.00
810.85,823.39,593.13,166740.00
810.80,823.33,592.35,158897.00
810.74,823.28,591.57,172625.00
810.69,823.23,590.78,172145.00
810.64,823.17,590.00,163269.00
810.59,823.12,589.22,174395.00
810.54,823.07,588.44,169174.00
810.48,823.01,587.65,169956.00
810.43,822.96,586.87,160205.00
810.38,822.91,586.09,157520.00
810.33,822.86,585.30,160987.00
810.28,822.80,584.52,160990.00
810.22,822.75,583.74,170121.00
810.17,822.70,582.95,174015.00
810.12,822.64,582.17,179643.00
810.07,822.59,581.38,165948.00
810.02,822.54,580.60,170096.00
809.96,822.48,579.82,158299.00
809.91,822.43,579.03,169069.00
809.86,822.38,578.25,168374.00
809.81,822.32,577.46,170299.00
809.76,822.27,576.68,170922.00
809.70,822.22,575.89,163509.00
809.65,822.16,575.11,166990.00
809.60,822.11,574.32,155537.00
809.55,822.06,573.54,164745.00
809.49,822.00,572.75,173725.00
809.44,821.95,571.97,168151.00
809.39,821.90,571.18,169277.00
809.34,821.85,570.40,174530.00
809.29,821.79,569.61,170021.00
809.23,821.74,568.83,168105.00
809.18,821.69,568.04,172972.00
809.13,821.63,567.26,165954.00
809.08,821.58,566.47,175804.00
809.03,821.53,565.68,169309.00
808.97,821.47,564.90,168991.00
808.92,821.42,564.11,165710.00
808.87,821.37,563.33,163228.00
808.82,821.31,562.54,167551.00
808.77,821.26,561.75,167650.00
808.71,821.21,560.97,173743.00
808.66,821.15,560.18,170853.00
808.61,821.10,559.39,158585.00
808.56,821.05,558.61,165066.00
808.50,820.99,557.82,158349.00
808.45,820.94,557.03,157879.00
808.40,820.89,556.25,162888.00
808.35,820.83,555.46,165277.00
808.30,820.78,554.67,170517.00
808.24,820.73,553.88,167504.00
808.19,820.68,553.10,164772.00
808.14,820.62,552.31,164717.00
808.09,820.57,551.52,174328.00
808.04,820.52,550.73,163714.00
807.98,820.46,549.95,174098.00
807.93,820.41,549.16,160286.00
807.88,820.36,548.37,164518.00
807.83,820.30,547.58,165939.00
807.78,820.25,546.79,173840.00
807.72,820.20,546.00,169271.00
807.67,820.14,545.22,164248.00
807.62,820.09,544.43,168733.00
807.57,820.04,543.64,163816.00
807.51,819.98,542.85,164325.00
807.46,819.93,542.06,166209.00
807.41,819.88,541.27,170209.00
807.36,819.82,540.48,175424.00
807.31,819.77,539.69,171811.00
807.25,819.72,538.90,169542.00
807.20,819.67,538.11,166271.00
807.15,819.61,537.32,168550.00
807.10,819.56,536.53,162299.00
807.05,819.51,535.74,167224.00
806.99,819.45,534.95,170502.00
806.94,819.40,534.16,170234.00
806.89,819.35,533.37,174481.00
806.84,819.29,532.58,161990.00
806.79,819.24,531.79,173984.00
806.73,819.19,531.00,166157.00
806.68,819.13,530.21,166696.00
806.63,819.08,529.42,165793.00
806.58,819.03,528.63,163961.00
806.53,818.97,527.84,179828.00
806.47,818.92,527.05,167269.00
806.42,818.87,526.26,169435.00
806.37,818.81,525.47,173476.00
806.32,818.76,524.68,168332.00
806.26,818.71,523.89,166932.00
806.21,818.65,523.09,170381.00
806.16,818.60,522.30,156881.00
806.11,818.55,521.51,163077.00
806.06,818.50,520.72,166493.00
806.00,818.44,519.93,162864.00
805.95,818.39,519.14,167642.00
805.90,818.34,518.34,170390.00
805.85,818.28,517.55,167374.00
805.80,818.23,516.76,164999.00
805.74,818.18,515.97,169760.00
805.69,818.12,515.17,164396.00
805.64,818.07,514.38,167492.00
805.59,818.02,513.59,174016.00
805.54,817.96,512.80,172039.00
805.48,817.91,512.00,169960.00
805.43,817.86,511.21,173898.00
805.38,817.80,510.42,169232.00
805.33,817.75,509.62,166973.00
805.27,817.70,508.83,173769.00
805.22,817.64,508.04,167249.00
805.17,817.59,507.24,164128.00
805.12,817.54,506.45,175288.00
805.07,817.49,505.66,168344.00
805.01,817.43,504.86,163281.00
804.96,817.38,504.07,168171.00
804.91,817.33,503.27,168515.00
804.86,817.27,502.48,178235.00
804.81,817.22,501.69,173218.00
804.75,817.17,500.89,164949.00
804.70,817.11,500.10,175764.00
804.65,817.06,499.30,178812.00
804.60,817.01,498.51,177532.00
804.55,816.95,497.71,170206.00
804.49,816.90,496.92,175824.00
804.44,816.85,496.12,172879.00
804.39,816.79,495.33,169687.00
804.34,816.74,494.53,175510.00
804.28,816.69,493.74,172859.00
804.23,816.63,492.94,181329.00
804.18,816.58,492.15,172372.00
804.13,816.53,491.35,175038.00
804.08,816.47,490.56,179953.00
804.02,816.42,489.76,175913.00
803.97,816.37,488.96,178399.00
803.92,816.32,488.17,177647.00
803.87,816.26,487.37,181784.00
803.82,816.21,486.58,167105.00
803.76,816.16,485.78,174288.00
803.71,816.10,484.98,174767.00
803.66,816.05,484.19,166341.00
803.61,816.00,483.39,184129.00
803.56,815.94,482.59,172256.00
803.50,815.89,481.80,177750.00
803.45,815.84,481.00,184746.00
803.40,815.78,480.20,187351.00
803.35,815.73,479.41,178954.00
803.30,815.68,478.61,176270.00
803.24,815.62,477.81,174172.00
803.19,815.57,477.01,179849.00
803.14,815.52,476.22,183241.00
803.09,815.46,475.42,173440.00
803.03,815.41,474.62,176865.00
802.98,815.36,473.82,173266.00
802.93,815.31,473.03,174378.00
802.88,815.25,472.23,188465.00
802.83,815.20,471.43,176009.00
802.77,815.15,470.63,178101.00
802.72,815.09,469.83,174749.00
802.67,815.04,469.03,179558.00
802.62,814.99,468.24,179414.00
802.57,814.93,467.44,179097.00
802.51,814.88,466.64,187740.00
802.46,814.83,465.84,172907.00
802.41,814.77,465.04,182242.00
802.36,814.72,464.24,182632.00
802.31,814.67,463.44,176136.00
802.25,814.61,462.64,169922.00
802.20,814.56,461.84,173166.00
802.15,814.51,461.04,175607.00
802.10,814.45,460.24,179288.00
802.04,814.40,459.44,170168.00
801.99,814.35,458.64,177135.00
801.94,814.29,457.84,174629.00
801.89,814.24,457.04,169362.00
801.84,814.19,456.24,179235.00
801.78,814.14,455.44,169963.00
801.73,814.08,454.64,172966.00
801.68,814.03,453.84,177720.00
801.63,813.98,453.04,170281.00
801.58,813.92,452.24,174071.00
801.52,813.87,451.44,169145.00
801.47,813.82,450.64,167153.00
801.42,813.76,449.84,161567.00
801.37,813.71,449.04,160316.00
801.32,813.66,448.24,162930.00
801.26,813.60,447.44,169508.00
801.21,813.55,446.63,163703.00
801.16,813.50,445.83,167302.00
801.11,813.44,445.03,166544.00
801.05,813.39,444.23,168856.00
801.00,813.34,443.43,161370.00
800.95,813.28,442.63,155341.00
800.90,813.23,441.82,153658.00
800.85,813.18,441.02,153842.00
800.79,813.13,440.22,151469.00
800.74,813.07,439.42,148886.00
800.69,813.02,438.61,146421.00
800.64,812.97,437.81,147445.00
800.59,812.91,437.01,143020.00
800.53,812.86,436.21,149912.00
800.48,812.81,435.40,140844.00
800.43,812.75,434.60,138665.00
800.38,812.70,433.80,147220.00
800.33,812.65,432.99,150717.00
800.27,812.59,432.19,140114.00
800.22,812.54,431.39,132724.00
800.17,812.49,430.58,138222.00
800.12,812.43,429.78,127852.00
800.07,812.38,428.98,129300.00
800.01,812.33,428.17,127660.00
799.96,812.27,427.37,124593.00
799.91,812.22,426.57,120138.00
799.86,812.17,425.76,123460.00
799.80,812.11,424.96,116740.00
799.75,812.06,424.15,124411.00
799.70,812.01,423.35,117899.00
799.65,811.96,422.54,114389.00
799.60,811.90,421.74,112732.00
799.54,811.85,420.93,112116.00
799.49,811.80,420.13,109562.00
799.44,811.74,419.32,105407.00
799.39,811.69,418.52,104156.00
799.34,811.64,417.71,111240.00
799.28,811.58,416.91,100128.00
799.23,811.53,416.10,94093.00
799.18,811.48,415.30,89061.00
799.13,811.42,414.49,87584.00
799.08,811.37,413.69,85705.00
799.02,811.32,412.88,85555.00
798.97,811.26,412.07,83454.00
798.92,811.21,411.27,79906.00
798.87,811.16,410.46,76867.00
798.81,811.10,409.66,76247.00
798.76,811.05,408.85,77120.00
798.71,811.00,408.04,74922.00
798.66,810.94,407.24,78036.00
798.61,810.89,406.43,67085.00
798.55,810.84,405.62,75233.00
798.50,810.79,404.82,68984.00
798.45,810.73,404.01,64261.00
798.40,810.68,403.20,61275.00
798.35,810.63,402.40,66959.00
798.29,810.57,401.59,57317.00
798.24,810.52,400.78,55686.00
798.19,810.47,399.97,61047.00
798.14,810.41,399.17,56529.00
798.09,810.36,398.36,58613.00
798.03,810.31,397.55,54023.00
797.98,810.25,396.74,52434.00
797.93,810.20,395.93,46919.00
797.88,810.15,395.13,47174.00
797.82,810.09,394.32,49915.00
797.77,810.04,393.51,43332.00
797.72,809.99,392.70,45949.00
797.67,809.93,391.89,39237.00
797.62,809.88,391.08,42778.00
797.56,809.83,390.27,37835.00
797.51,809.78,389.47,40423.00
797.46,809.72,388.66,38529.00
797.41,809.67,387.85,43504.00
797.36,809.62,387.04,36354.00
797.30,809.56,386.23,32335.00
797.25,809.51,385.42,36849.00
797.20,809.46,384.61,27712.00
797.15,809.40,383.80,32346.00
797.10,809.35,382.99,33501.00
797.04,809.30,382.18,25398.00
796.99,809.24,381.37,31776.00
796.94,809.19,380.56,31130.00
796.89,809.14,379.75,28452.00
796.84,809.08,378.94,27280.00
796.78,809.03,378.13,24508.00
796.73,808.98,377.32,31862.00
796.68,808.92,376.51,27715.00
796.63,808.87,375.70,24485.00
796.57,808.82,374.89,28195.00
796.52,808.76,374.08,23573.00
796.47,808.71,373.27,23158.00
796.42,808.66,372.45,20792.00
796.37,808.61,371.64,18313.00
796.31,808.55,370.83,19667.00
796.26,808.50,370.02,26949.00
796.21,808.45,369.21,21546.00
796.16,808.39,368.40,22755.00
796.11,808.34,367.59,18703.00
796.05,808.29,366.77,14674.00
796.00,808.23,365.96,15591.00
795.95,808.18,365.15,16846.00
795.90,808.13,364.34,17667.00
795.85,808.07,363.53,19712.00
795.79,808.02,362.71,18739.00
795.74,807.97,361.90,15960.00
795.69,807.91,361.09,18020.00
795.64,807.86,360.27,14984.00
795.58,807.81,359.46,13672.00
795.53,807.75,358.65,14678.00
795.48,807.70,357.84,10909.00
795.43,807.65,357.02,13276.00
795.38,807.60,356.21,11375.00
795.32,807.54,355.40,10978.00
795.27,807.49,354.58,12506.00
795.22,807.44,353.77,13535.00
795.17,807.38,352.96,11852.00
795.12,807.33,352.14,15411.00
795.06,807.28,351.33,14752.00
795.01,807.22,350.51,10745.00
794.96,807.17,349.70,12514.00
794.91,807.12,348.89,12142.00
794.86,807.06,348.07,15328.00
794.80,807.01,347.26,12352.00
794.75,806.96,346.44,9688.00
794.70,806.90,345.63,9967.00
794.65,806.85,344.81,9998.00
794.59,806.80,344.00,10634.00
794.54,806.74,343.18,9433.00
794.49,806.69,342.37,6274.00
794.44,806.64,341.55,8513.00
794.39,806.58,340.74,14184.00
794.33,806.53,339.92,8792.00
794.28,806.48,339.11,10038.00
794.23,806.43,338.29,10119.00
794.18,806.37,337.47,11960.00
794.13,806.32,336.66,10829.00
794.07,806.27,335.84,8900.00
794.02,806.21,335.03,9026.00
793.97,806.16,334.21,15252.00
793.92,806.11,333.39,9177.00
793.87,806.05,332.58,6878.00
793.81,806.00,331.76,7687.00
793.76,805.95,330.95,11024.00
793.71,805.89,330.13,7972.00
793.66,805.84,329.31,9900.00
793.61,805.79,328.49,9836.00
793.55,805.73,327.68,8429.00
793.50,805.68,326.86,8316.00
793.45,805.63,326.04,9273.00
793.40,805.57,325.23,11078.00
793.34,805.52,324.41,10942.00
793.29,805.47,323.59,7776.00
793.24,805.42,322.77,8896.00
793.19,805.36,321.96,11687.00
793.14,805.31,321.14,6149.00
793.08,805.26,320.32,6418.00
793.03,805.20,319.50,8321.00
792.98,805.15,318.68,7322.00
792.93,805.10,317.87,7634.00
792.88,805.04,317.05,8096.00
792.82,804.99,316.23,5475.00
792.77,804.94,315.41,8959.00
792.72,804.88,314.59,8194.00
792.67,804.83,313.77,7967.00
792.62,804.78,312.95,6105.00
792.56,804.72,312.13,8485.00
792.51,804.67,311.31,10465.00
792.46,804.62,310.50,8012.00
792.41,804.56,309.68,9527.00
792.35,804.51,308.86,7670.00
792.30,804.46,308.04,5925.00
792.25,804.40,307.22,6344.00
792.20,804.35,306.40,5794.00
792.15,804.30,305.58,11033.00
792.09,804.25,304.76,9868.00
792.04,804.19,303.94,5036.00
791.99,804.14,303.12,7364.00
791.94,804.09,302.30,7037.00
791.89,804.03,301.48,8246.00
791.83,803.98,300.66,7658.00
791.78,803.93,299.83,8088.00
791.73,803.87,299.01,9799.00
791.68,803.82,298.19,6623.00
791.63,803.77,297.37,7335.00
791.57,803.71,296.55,10519.00
791.52,803.66,295.73,7737.00
791.47,803.61,294.91,5467.00
791.42,803.55,294.09,5244.00
791.36,803.50,293.27,6746.00
791.31,803.45,292.44,10238.00
791.26,803.39,291.62,7682.00
791.21,803.34,290.80,9396.00
791.16,803.29,289.98,7980.00
791.10,803.24,289.16,8419.00
791.05,803.18,288.33,10122.00
791.00,803.13,287.51,5296.00
790.95,803.08,286.69,5289.00
790.90,803.02,285.87,7213.00
790.84,802.97,285.04,7775.00
790.79,802.92,284.22,5596.00
790.74,802.86,283.40,6869.00
790.69,802.81,282.57,6832.00
790.64,802.76,281.75,6922.00
790.58,802.70,280.93,7567.00
790.53,802.65,280.11,6254.00
790.48,802.60,279.28,12786.00
790.43,802.54,278.46,5115.00
790.38,802.49,277.63,8401.00
790.32,802.44,276.81,9264.00
790.27,802.38,275.99,7203.00
790.22,802.33,275.16,9546.00
790.17,802.28,274.34,6871.00
790.11,802.22,273.51,5531.00
790.06,802.17,272.69,6663.00
790.01,802.12,271.87,5409.00
789.96,802.07,271.04,7972.00
789.91,802.01,270.22,5550.00
789.85,801.96,269.39,3907.00
789.80,801.91,268.57,7086.00
789.75,801.85,267.74,5924.00
789.70,801.80,266.92,11808.00
789.65,801.75,266.09,6947.00
789.59,801.69,265.27,9002.00
789.54,801.64,264.44,8051.00
789.49,801.59,263.62,8797.00
789.44,801.53,262.79,7026.00
789.39,801.48,261.96,6212.00
789.33,801.43,261.14,7747.00
789.28,801.37,260.31,11230.00
789.23,801.32,259.49,7193.00
789.18,801.27,258.66,6829.00
789.12,801.21,257.83,6000.00
789.07,801.16,257.01,6386.00
789.02,801.11,256.18,6248.00
788.97,801.06,255.35,6030.00
788.92,801.00,254.53,6023.00
788.86,800.95,253.70,7709.00
788.81,800.90,252.87,7116.00
788.76,800.84,252.05,7558.00
788.71,800.79,251.22,6262.00
788.66,800.74,250.39,10398.00
788.60,800.68,249.57,6395.00
788.55,800.63,248.74,7495.00
788.50,800.58,247.91,7736.00
788.45,800.52,247.08,6928.00
788.40,800.47,246.26,5536.00
788.34,800.42,245.43,8466.00
788.29,800.36,244.60,8000.00
788.24,800.31,243.77,9091.00
788.19,800.26,242.94,8840.00
788.13,800.20,242.11,6032.00
788.08,800.15,241.29,6440.00
788.03,800.10,240.46,5823.00
787.98,800.04,239.63,5548.00
787.93,799.99,238.80,7070.00
787.87,799.94,237.97,7276.00
787.82,799.89,237.14,5825.00
787.77,799.83,236.31,7688.00
787.72,799.78,235.48,5913.00
787.67,799.73,234.65,2942.00
787.61,799.67,233.82,9141.00
787.56,799.62,233.00,4736.00
787.51,799.57,232.17,7800.00
787.46,799.51,231.34,7051.00
787.41,799.46,230.51,8459.00
787.35,799.41,229.68,6758.00
787.30,799.35,228.85,7600.00
787.25,799.30,228.02,8958.00
787.20,799.25,227.19,6485.00
787.15,799.19,226.35,6151.00
787.09,799.14,225.52,7661.00
787.04,799.09,224.69,7705.00
786.99,799.03,223.86,9861.00
786.94,798.98,223.03,12217.00
786.88,798.93,222.20,5895.00
786.83,798.87,221.37,5325.00
786.78,798.82,220.54,6766.00
786.73,798.77,219.71,8784.00
786.68,798.72,218.88,8791.00
786.62,798.66,218.04,7977.00
786.57,798.61,217.21,7253.00
786.52,798.56,216.38,8658.00
786.47,798.50,215.55,6528.00
786.42,798.45,214.72,6443.00
786.36,798.40,213.88,8051.00
786.31,798.34,213.05,7532.00
786.26,798.29,212.22,6881.00
786.21,798.24,211.39,7672.00
786.16,798.18,210.56,6954.00
786.10,798.13,209.72,5375.00
786.05,798.08,208.89,11336.00
786.00,798.02,208.06,8786.00
785.95,797.97,207.22,11103.00
785.89,797.92,206.39,6240.00
785.84,797.86,205.56,6426.00
785.79,797.81,204.72,5765.00
785.74,797.76,203.89,4628.00
785.69,797.71,203.06,7711.00
785.63,797.65,202.22,4737.00
785.58,797.60,201.39,5152.00
785.53,797.55,200.56,5508.00
785.48,797.49,199.72,6413.00
785.43,797.44,198.89,9714.00
785.37,797.39,198.05,5595.00
785.32,797.33,197.22,3979.00
785.27,797.28,196.38,6982.00
785.22,797.23,195.55,5172.00
785.17,797.17,194.72,9067.00
785.11,797.12,193.88,9976.00
785.06,797.07,193.05,5352.00
785.01,797.01,192.21,9193.00
784.96,796.96,191.38,7420.00
784.90,796.91,190.54,11141.00
784.85,796.85,189.71,9398.00
784.80,796.80,188.87,6055.00
784.75,796.75,188.03,7411.00
784.70,796.69,187.20,5267.00
784.64,796.64,186.36,9600.00
784.59,796.59,185.53,5481.00
784.54,796.54,184.69,9463.00
784.49,796.48,183.85,6514.00
784.44,796.43,183.02,9522.00
784.38,796.38,182.18,7936.00
784.33,796.32,181.35,7755.00
784.28,796.27,180.51,8184.00
784.23,796.22,179.67,6628.00
784.18,796.16,178.84,4795.00
784.12,796.11,178.00,7794.00
784.07,796.06,177.16,4023.00
784.02,796.00,176.32,5925.00
783.97,795.95,175.49,7670.00
783.92,795.90,174.65,6874.00
783.86,795.84,173.81,4708.00
783.81,795.79,172.98,6655.00
783.76,795.74,172.14,5910.00
783.71,795.68,171.30,4843.00
783.65,795.63,170.46,5532.00
783.60,795.58,169.62,6919.00
783.55,795.53,168.79,9644.00
783.50,795.47,167.95,10054.00
783.45,795.42,167.11,6307.00
783.39,795.37,166.27,6611.00
783.34,795.31,165.43,7417.00
783.29,795.26,164.59,8774.00
783.24,795.21,163.75,9970.00
783.19,795.15,162.92,6182.00
783.13,795.10,162.08,10768.00
783.08,795.05,161.24,10736.00
783.03,794.99,160.40,10583.00
782.98,794.94,159.56,8312.00
782.93,794.89,158.72,8272.00
782.87,794.83,157.88,9077.00
782.82,794.78,157.04,5691.00
782.77,794.73,156.20,6409.00
782.72,794.67,155.36,4838.00
782.66,794.62,154.52,7347.00
782.61,794.57,153.68,9772.00
782.56,794.51,152.84,4699.00
782.51,794.46,152.00,5807.00
782.46,794.41,151.16,6383.00
782.40,794.36,150.32,6910.00
782.35,794.30,149.48,6913.00
782.30,794.25,148.64,5852.00
782.25,794.20,147.80,7709.00
782.20,794.14,146.95,8147.00
782.14,794.09,146.11,9041.00
782.09,794.04,145.27,5177.00
782.04,793.98,144.43,6734.00
781.99,793.93,143.59,7741.00
781.94,793.88,142.75,6740.00
781.88,793.82,141.91,6113.00
781.83,793.77,141.06,7115.00
781.78,793.72,140.22,12444.00
781.73,793.66,139.38,9580.00
781.67,793.61,138.54,4811.00
781.62,793.56,137.70,8144.00
781.57,793.50,136.85,4769.00
781.52,793.45,136.01,12162.00
781.47,793.40,135.17,9328.00
781.41,793.35,134.33,6898.00
781.36,793.29,133.48,6871.00
781.31,793.24,132.64,4779.00
781.26,793.19,131.80,7642.00
781.21,793.13,130.95,7001.00
781.15,793.08,130.11,6793.00
781.10,793.03,129.27,11915.00
781.05,792.97,128.42,9085.00
781.00,792.92,127.58,7400.00
780.95,792.87,126.74,7544.00
780.89,792.81,125.89,6574.00
780.84,792.76,125.05,6320.00
780.79,792.71,124.20,5921.00
780.74,792.65,123.36,7077.00
780.69,792.60,122.52,8935.00
780.63,792.55,121.67,7094.00
780.58,792.49,120.83,4950.00
780.53,792.44,119.98,9881.00
780.48,792.39,119.14,5655.00
780.42,792.33,118.29,6544.00
780.37,792.28,117.45,6736.00
780.32,792.23,116.60,11761.00
780.27,792.18,115.76,7447.00
780.22,792.12,114.91,7491.00
780.16,792.07,114.07,10310.00
780.11,792.02,113.22,9952.00
780.06,791.96,112.37,8348.00
780.01,791.91,111.53,9980.00
779.96,791.86,110.68,10550.00
779.90,791.80,109.84,17526.00
779.85,791.75,108.99,20876.00
779.80,791.70,108.14,32158.00
779.75,791.64,107.30,35112.00
779.70,791.59,106.45,43437.00
779.64,791.54,105.61,62672.00
779.59,791.48,104.76,83638.00
779.54,791.43,103.91,100672.00
779.49,791.38,103.06,116171.00
779.43,791.32,102.22,143161.00
779.38,791.27,101.37,151405.00
779.33,791.22,100.52,167981.00
779.28,791.17,99.68,181361.00
779.23,791.11,98.83,200639.00
779.17,791.06,97.98,204976.00
779.12,791.01,97.13,210697.00
779.07,790.95,96.29,211176.00
779.02,790.90,95.44,212140.00
778.97,790.85,94.59,200609.00
778.91,790.79,93.74,206203.00
778.86,790.74,92.89,212746.00
778.81,790.69,92.04,202190.00
778.76,790.63,91.20,207696.00
778.71,790.58,90.35,200830.00
778.65,790.53,89.50,186504.00
778.60,790.47,88.65,179598.00
778.55,790.42,87.80,187595.00
778.50,790.37,86.95,171054.00
778.44,790.31,86.10,183560.00
778.39,790.26,85.25,184834.00
778.34,790.21,84.40,171543.00
778.29,790.15,83.55,174755.00
778.24,790.10,82.70,177390.00
778.18,790.05,81.85,193319.00
778.13,790.00,81.00,195226.00
778.08,789.94,80.15,199323.00
778.03,789.89,79.30,185171.00
777.98,789.84,78.45,193396.00
777.92,789.78,77.60,187783.00
777.87,789.73,76.75,187634.00
777.82,789.68,75.90,192806.00
777.77,789.62,75.05,192807.00
777.72,789.57,74.20,192458.00
777.66,789.52,73.35,197624.00
777.61,789.46,72.50,190405.00
777.56,789.41,71.65,188774.00
777.51,789.36,70.80,198480.00
777.46,789.30,69.95,192543.00
777.40,789.25,69.09,186231.00
777.35,789.20,68.24,178769.00
777.30,789.14,67.39,182372.00
777.25,789.09,66.54,187559.00
777.19,789.04,65.69,182829.00
777.14,788.99,64.83,189614.00
777.09,788.93,63.98,182052.00
777.04,788.88,63.13,183684.00
776.99,788.83,62.28,183345.00
776.93,788.77,61.43,188570.00
776.88,788.72,60.57,186239.00
776.83,788.67,59.72,189774.00
776.78,788.61,58.87,199105.00
776.73,788.56,58.01,203402.00
776.67,788.51,57.16,193458.00
776.62,788.45,56.31,210946.00
776.57,788.40,55.45,202153.00
776.52,788.35,54.60,209652.00
776.47,788.29,53.75,206771.00
776.41,788.24,52.89,206801.00
776.36,788.19,52.04,209303.00
776.31,788.13,51.19,212737.00
776.26,788.08,50.33,219701.00
776.20,788.03,49.48,224797.00
776.15,787.97,48.62,227789.00
776.10,787.92,47.77,218446.00
776.05,787.87,46.91,225279.00
776.00,787.82,46.06,227509.00
775.94,787.76,45.20,251001.00
775.89,787.71,44.35,254088.00
775.84,787.66,43.50,247434.00
775.79,787.60,42.64,261022.00
775.74,787.55,41.78,258773.00
775.68,787.50,40.93,272546.00
775.63,787.44,40.07,280300.00
775.58,787.39,39.22,288164.00
775.53,787.34,38.36,294887.00
775.48,787.28,37.51,299455.00
775.42,787.23,36.65,326955.00
775.37,787.18,35.80,326151.00
775.32,787.12,34.94,349279.00
775.27,787.07,34.08,369057.00
775.21,787.02,33.23,415806.00
775.16,786.96,32.37,427880.00
775.11,786.91,31.51,466793.00
775.06,786.86,30.66,498105.00
775.01,786.80,29.80,550948.00
774.95,786.75,28.94,582599.00
774.90,786.70,28.09,613501.00
774.85,786.65,27.23,647694.00
774.80,786.59,26.37,677472.00
774.75,786.54,25.51,695506.00
774.69,786.49,24.66,690239.00
774.64,786.43,23.80,706971.00
774.59,786.38,22.94,736145.00
774.54,786.33,22.08,759396.00
774.49,786.27,21.23,763884.00
774.43,786.22,20.37,765472.00
774.38,786.17,19.51,775325.00
774.33,786.11,18.65,784925.00
774.28,786.06,17.79,782920.00
774.23,786.01,16.93,783837.00
774.17,785.95,16.08,785632.00
774.12,785.90,15.22,784238.00
774.07,785.85,14.36,783258.00
774.02,785.79,13.50,785722.00
773.96,785.74,12.64,784827.00
773.91,785.69,11.78,785992.00
773.86,785.64,10.92,786156.00
773.81,785.58,10.06,783300.00
773.76,785.53,9.20,780072.00
773.70,785.48,8.34,777116.00
773.65,785.42,7.48,770598.00
773.60,785.37,6.62,768090.00
773.55,785.32,5.76,734898.00
773.50,785.26,4.90,730095.00
773.44,785.21,4.04,703620.00
773.39,785.16,3.18,674889.00
773.34,785.10,2.32,645893.00
773.29,785.05,1.46,614078.00
773.24,785.00,0.60,596968.00
773.18,784.94,-0.26,535128.00
773.13,784.89,-1.12,510811.00
773.08,784.84,-1.98,479842.00
773.03,784.78,-2.84,464998.00
772.97,784.73,-3.71,446437.00
772.92,784.68,-4.57,435130.00
772.87,784.62,-5.43,418675.00
772.82,784.57,-6.29,402105.00
772.77,784.52,-7.15,384805.00
772.71,784.47,-8.01,375460.00
772.66,784.41,-8.88,368923.00
772.61,784.36,-9.74,363841.00
772.56,784.31,-10.60,370179.00
772.51,784.25,-11.46,371848.00
772.45,784.20,-12.33,354145.00
772.40,784.15,-13.19,325746.00
772.35,784.09,-14.05,293141.00
772.30,784.04,-14.91,282130.00
772.25,783.99,-15.78,279989.00
772.19,783.93,-16.64,270103.00
772.14,783.88,-17.50,272113.00
772.09,783.83,-18.37,264895.00
772.04,783.77,-19.23,267853.00
771.98,783.72,-20.09,248471.00
771.93,783.67,-20.96,246869.00
771.88,783.61,-21.82,237854.00
771.83,783.56,-22.68,234842.00
771.78,783.51,-23.55,226766.00
771.72,783.46,-24.41,228111.00
771.67,783.40,-25.28,220012.00
771.62,783.35,-26.14,211492.00
771.57,783.30,-27.01,218485.00
771.52,783.24,-27.87,224837.00
771.46,783.19,-28.74,216464.00
771.41,783.14,-29.60,215077.00
771.36,783.08,-30.47,208731.00
771.31,783.03,-31.33,194819.00
771.26,782.98,-32.20,198565.00
771.20,782.92,-33.06,193746.00
771.15,782.87,-33.93,200503.00
771.10,782.82,-34.79,220967.00
771.05,782.76,-35.66,217096.00
771.00,782.71,-36.52,228752.00
770.94,782.66,-37.39,233206.00
770.89,782.60,-38.26,220726.00
770.84,782.55,-39.12,220725.00
770.79,782.50,-39.99,209891.00
770.73,782.44,-40.85,204202.00
770.68,782.39,-41.72,206844.00
770.63,782.34,-42.59,193199.00
770.58,782.29,-43.45,178631.00
770.53,782.23,-44.32,183427.00
770.47,782.18,-45.19,185195.00
770.42,782.13,-46.06,182909.00
770.37,782.07,-46.92,178366.00
770.32,782.02,-47.79,186586.00
770.27,781.97,-48.66,178821.00
770.21,781.91,-49.52,187102.00
770.16,781.86,-50.39,180610.00
770.11,781.81,-51.26,184560.00
770.06,781.75,-52.13,167828.00
770.01,781.70,-53.00,173154.00
769.95,781.65,-53.86,168213.00
769.90,781.59,-54.73,165737.00
769.85,781.54,-55.60,163611.00
769.80,781.49,-56.47,167458.00
769.74,781.43,-57.34,165246.00
769.69,781.38,-58.21,152691.00
769.64,781.33,-59.08,153346.00
769.59,781.28,-59.94,141178.00
769.54,781.22,-60.81,138915.00
769.48,781.17,-61.68,127790.00
769.43,781.12,-62.55,114804.00
769.38,781.06,-63.42,109332.00
769.33,781.01,-64.29,115668.00
769.28,780.96,-65.16,108307.00
769.22,780.90,-66.03,101911.00
769.17,780.85,-66.90,93166.00
769.12,780.80,-67.77,86583.00
769.07,780.74,-68.64,84633.00
769.02,780.69,-69.51,76287.00
768.96,780.64,-70.38,70518.00
768.91,780.58,-71.25,62716.00
768.86,780.53,-72.12,59902.00
768.81,780.48,-72.99,51809.00
768.75,780.42,-73.86,51776.00
768.70,780.37,-74.74,49625.00
768.65,780.32,-75.61,41843.00
768.60,780.26,-76.48,40338.00
768.55,780.21,-77.35,36621.00
768.49,780.16,-78.22,35356.00
768.44,780.11,-79.09,29010.00
768.39,780.05,-79.96,23066.00
768.34,780.00,-80.84,25218.00
768.29,779.95,-81.71,22248.00
768.23,779.89,-82.58,20219.00
768.18,779.84,-83.45,21886.00
768.13,779.79,-84.32,18287.00
768.08,779.73,-85.20,12267.00
768.03,779.68,-86.07,13031.00
767.97,779.63,-86.94,9918.00
767.92,779.57,-87.81,11200.00
767.87,779.52,-88.69,11326.00
767.82,779.47,-89.56,12064.00
767.77,779.41,-90.43,11783.00
767.71,779.36,-91.31,12432.00
767.66,779.31,-92.18,15822.00
767.61,779.25,-93.05,10889.00
767.56,779.20,-93.93,9427.00
767.50,779.15,-94.80,9145.00
767.45,779.10,-95.67,11443.00
767.40,779.04,-96.55,9725.00
767.35,778.99,-97.42,13505.00
767.30,778.94,-98.30,9787.00
767.24,778.88,-99.17,7207.00
767.19,778.83,-100.05,8289.00
767.14,778.78,-100.92,10557.00
767.09,778.72,-101.80,8007.00
767.04,778.67,-102.67,8599.00
766.98,778.62,-103.54,10241.00
766.93,778.56,-104.42,14006.00
766.88,778.51,-105.30,11797.00
766.83,778.46,-106.17,9175.00
766.78,778.40,-107.05,6412.00
766.72,778.35,-107.92,9392.00
766.67,778.30,-108.80,8541.00
766.62,778.24,-109.67,14265.00
766.57,778.19,-110.55,7968.00
766.51,778.14,-111.42,9803.00
766.46,778.08,-112.30,8130.00
766.41,778.03,-113.18,8644.00
766.36,777.98,-114.05,9003.00
766.31,777.93,-114.93,8577.00
766.25,777.87,-115.81,11217.00
766.20,777.82,-116.68,9058.00
766.15,777.77,-117.56,6922.00
766.10,777.71,-118.44,8756.00
766.05,777.66,-119.31,8169.00
765.99,777.61,-120.19,6563.00
765.94,777.55,-121.07,9682.00
765.89,777.50,-121.95,9545.00
765.84,777.45,-122.82,10217.00
765.79,777.39,-123.70,9853.00
765.73,777.34,-124.58,10044.00
765.68,777.29,-125.46,7884.00
765.63,777.23,-126.33,5554.00
765.58,777.18,-127.21,7261.00
765.52,777.13,-128.09,6427.00
765.47,777.07,-128.97,11204.00
765.42,777.02,-129.85,10809.00
765.37,776.97,-130.73,8486.00
765.32,776.91,-131.61,6633.00
765.26,776.86,-132.48,9895.00
765.21,776.81,-133.36,6413.00
765.16,776.76,-134.24,7889.00
765.11,776.70,-135.12,5815.00
765.06,776.65,-136.00,7753.00
765.00,776.60,-136.88,7332.00
764.95,776.54,-137.76,6668.00
764.90,776.49,-138.64,8111.00
764.85,776.44,-139.52,7002.00
764.80,776.38,-140.40,5185.00
764.74,776.33,-141.28,7257.00
764.69,776.28,-142.16,11137.00
764.64,776.22,-143.04,7562.00
764.59,776.17,-143.92,11747.00
764.54,776.12,-144.80,9664.00
764.48,776.06,-145.68,7347.00
764.43,776.01,-146.56,7252.00
764.38,775.96,-147.44,5492.00
764.33,775.90,-148.32,5706.00
764.27,775.85,-149.21,7316.00
764.22,775.80,-150.09,7464.00
764.17,775.75,-150.97,6454.00
764.12,775.69,-151.85,6468.00
764.07,775.64,-152.73,5927.00
764.01,775.59,-153.61,10015.00
763.96,775.53,-154.50,6085.00
763.91,775.48,-155.38,7905.00
763.86,775.43,-156.26,4727.00
763.81,775.37,-157.14,5068.00
763.75,775.32,-158.02,4573.00
763.70,775.27,-158.91,4643.00
763.65,775.21,-159.79,5835.00
763.60,775.16,-160.67,5322.00
763.55,775.11,-161.56,4284.00
763.49,775.05,-162.44,8542.00
763.44,775.00,-163.32,4884.00
763.39,774.95,-164.20,5313.00
763.34,774.89,-165.09,5479.00
763.28,774.84,-165.97,5041.00
763.23,774.79,-166.85,7696.00
763.18,774.73,-167.74,8464.00
763.13,774.68,-168.62,8082.00
763.08,774.63,-169.51,5604.00
763.02,774.58,-170.39,4825.00
762.97,774.52,-171.27,7056.00
762.92,774.47,-172.16,5964.00
762.87,774.42,-173.04,6533.00
762.82,774.36,-173.93,11739.00
762.76,774.31,-174.81,6717.00
762.71,774.26,-175.70,7775.00
762.66,774.20,-176.58,6411.00
762.61,774.15,-177.47,5314.00
762.56,774.10,-178.35,7670.00
762.50,774.04,-179.24,5307.00
762.45,773.99,-180.12,7545.00
762.40,773.94,-181.01,5125.00
762.35,773.88,-181.89,7518.00
762.29,773.83,-182.78,10765.00
762.24,773.78,-183.67,5709.00
762.19,773.72,-184.55,5189.00
762.14,773.67,-185.44,12717.00
762.09,773.62,-186.32,5876.00
762.03,773.57,-187.21,7835.00
761.98,773.51,-188.10,9082.00
761.93,773.46,-188.98,6586.00
761.88,773.41,-189.87,6279.00
761.83,773.35,-190.76,5609.00
761.77,773.30,-191.64,5724.00
761.72,773.25,-192.53,4628.00
761.67,773.19,-193.42,5870.00
761.62,773.14,-194.31,5097.00
761.57,773.09,-195.19,9862.00
761.51,773.03,-196.08,7918.00
761.46,772.98,-196.97,5801.00
761.41,772.93,-197.86,5574.00
761.36,772.87,-198.75,4875.00
761.31,772.82,-199.63,6927.00
761.25,772.77,-200.52,7613.00
761.20,772.71,-201.41,4699.00
761.15,772.66,-202.30,6398.00
761.10,772.61,-203.19,5371.00
761.04,772.55,-204.08,5113.00
760.99,772.50,-204.96,10473.00
760.94,772.45,-205.85,5799.00
760.89,772.40,-206.74,6459.00
760.84,772.34,-207.63,5147.00
760.78,772.29,-208.52,7173.00
760.73,772.24,-209.41,5137.00
760.68,772.18,-210.30,6048.00
760.63,772.13,-211.19,7854.00
760.58,772.08,-212.08,4341.00
760.52,772.02,-212.97,5003.00
760.47,771.97,-213.86,6728.00
760.42,771.92,-214.75,7795.00
760.37,771.86,-215.64,8057.00
760.32,771.81,-216.53,5967.00
760.26,771.76,-217.42,7620.00
760.21,771.70,-218.31,4219.00
760.16,771.65,-219.20,4962.00
760.11,771.60,-220.09,4749.00
760.05,771.54,-220.98,5454.00
760.00,771.49,-221.88,6222.00
759.95,771.44,-222.77,5739.00
759.90,771.39,-223.66,5588.00
759.85,771.33,-224.55,5840.00
759.79,771.28,-225.44,7218.00
759.74,771.23,-226.33,5755.00
759.69,771.17,-227.22,6481.00
759.64,771.12,-228.12,6963.00
759.59,771.07,-229.01,4400.00
759.53,771.01,-229.90,7288.00
759.48,770.96,-230.79,6435.00
759.43,770.91,-231.69,6143.00
759.38,770.85,-232.58,8236.00
759.33,770.80,-233.47,4645.00
759.27,770.75,-234.36,5066.00
759.22,770.69,-235.26,6238.00
759.17,770.64,-236.15,6515.00
759.12,770.59,-237.04,6224.00
759.06,770.53,-237.94,5296.00
759.01,770.48,-238.83,8726.00
758.96,770.43,-239.72,4049.00
758.91,770.37,-240.62,5359.00
758.86,770.32,-241.51,6575.00
758.80,770.27,-242.41,5686.00
758.75,770.22,-243.30,6178.00
758.70,770.16,-244.19,5664.00
758.65,770.11,-245.09,5294.00
758.60,770.06,-245.98,7355.00
758.54,770.00,-246.88,7015.00
758.49,769.95,-247.77,4665.00
758.44,769.90,-248.67,6789.00
758.39,769.84,-249.56,4564.00
758.34,769.79,-250.46,5905.00
758.28,769.74,-251.35,3217.00
758.23,769.68,-252.25,4671.00
758.18,769.63,-253.14,5660.00
758.13,769.58,-254.04,7054.00
758.08,769.52,-254.93,7881.00
758.02,769.47,-255.83,8031.00
757.97,769.42,-256.73,7425.00
757.92,769.36,-257.62,5226.00
757.87,769.31,-258.52,7967.00
757.81,769.26,-259.42,6493.00
757.76,769.21,-260.31,6999.00
757.71,769.15,-261.21,7993.00
757.66,769.10,-262.11,6073.00
757.61,769.05,-263.00,4851.00
757.55,768.99,-263.90,4964.00
757.50,768.94,-264.80,5316.00
757.45,768.89,-265.69,6131.00
757.40,768.83,-266.59,6139.00
757.35,768.78,-267.49,6510.00
757.29,768.73,-268.39,6069.00
757.24,768.67,-269.28,9379.00
757.19,768.62,-270.18,7008.00
757.14,768.57,-271.08,3614.00
757.09,768.51,-271.98,5368.00
757.03,768.46,-272.88,5646.00
756.98,768.41,-273.77,7845.00
756.93,768.35,-274.67,6839.00
756.88,768.30,-275.57,4176.00
756.82,768.25,-276.47,7495.00
756.77,768.19,-277.37,7353.00
756.72,768.14,-278.27,7178.00
756.67,768.09,-279.17,4968.00
756.62,768.04,-280.07,4687.00
756.56,767.98,-280.96,7717.00
756.51,767.93,-281.86,6636.00
756.46,767.88,-282.76,4661.00
756.41,767.82,-283.66,7769.00
756.36,767.77,-284.56,6458.00
756.30,767.72,-285.46,5387.00
756.25,767.66,-286.36,5474.00
756.20,767.61,-287.26,6101.00
756.15,767.56,-288.16,5423.00
756.10,767.50,-289.06,5726.00
756.04,767.45,-289.96,5962.00
755.99,767.40,-290.87,5305.00
755.94,767.34,-291.77,4303.00
755.89,767.29,-292.67,5984.00
755.83,767.24,-293.57,8933.00
755.78,767.18,-294.47,4756.00
755.73,767.13,-295.37,5435.00
755.68,767.08,-296.27,5416.00
755.63,767.03,-297.17,3852.00
755.57,766.97,-298.08,5964.00
755.52,766.92,-298.98,5715.00
755.47,766.87,-299.88,5438.00
755.42,766.81,-300.78,4736.00
755.37,766.76,-301.68,7517.00
755.31,766.71,-302.59,6291.00
755.26,766.65,-303.49,5093.00
755.21,766.60,-304.39,6545.00
755.16,766.55,-305.29,8782.00
755.11,766.49,-306.20,5233.00
755.05,766.44,-307.10,5577.00
755.00,766.39,-308.00,6365.00
754.95,766.33,-308.91,8007.00
754.90,766.28,-309.81,7695.00
754.85,766.23,-310.71,5913.00
754.79,766.17,-311.62,4201.00
754.74,766.12,-312.52,6232.00
754.69,766.07,-313.42,5679.00
754.64,766.01,-314.33,3768.00
754.58,765.96,-315.23,6382.00
754.53,765.91,-316.14,4425.00
754.48,765.86,-317.04,4669.00
754.43,765.80,-317.94,3582.00
754.38,765.75,-318.85,4977.00
754.32,765.70,-319.75,6429.00
754.27,765.64,-320.66,5697.00
754.22,765.59,-321.56,5345.00
754.17,765.54,-322.47,6207.00
754.12,765.48,-323.37,5996.00
754.06,765.43,-324.28,6856.00
754.01,765.38,-325.18,4573.00
753.96,765.32,-326.09,6195.00
753.91,765.27,-327.00,8010.00
753.86,765.22,-327.90,5505.00
753.80,765.16,-328.81,5113.00
753.75,765.11,-329.71,6358.00
753.70,765.06,-330.62,4281.00
753.65,765.00,-331.53,5114.00
753.59,764.95,-332.43,4790.00
753.54,764.90,-333.34,7430.00
753.49,764.84,-334.25,4174.00
753.44,764.79,-335.15,3201.00
753.39,764.74,-336.06,7714.00
753.33,764.69,-336.97,4330.00
753.28,764.63,-337.87,5400.00
753.23,764.58,-338.78,4281.00
753.18,764.53,-339.69,5673.00
753.13,764.47,-340.60,5317.00
753.07,764.42,-341.50,5061.00
753.02,764.37,-342.41,7179.00
752.97,764.31,-343.32,5821.00
752.92,764.26,-344.23,3661.00
752.87,764.21,-345.14,5527.00
752.81,764.15,-346.04,4802.00
752.76,764.10,-346.95,7973.00
752.71,764.05,-347.86,5462.00
752.66,763.99,-348.77,7333.00
752.60,763.94,-349.68,4659.00
752.55,763.89,-350.59,5603.00
752.50,763.83,-351.50,6217.00
752.45,763.78,-352.41,8488.00
752.40,763.73,-353.32,3649.00
752.34,763.68,-354.23,7570.00
752.29,763.62,-355.14,3935.00
752.24,763.57,-356.04,6296.00
752.19,763.52,-356.95,7468.00
752.14,763.46,-357.86,5510.00
752.08,763.41,-358.77,7227.00
752.03,763.36,-359.69,5416.00
751.98,763.30,-360.60,5409.00
751.93,763.25,-361.51,5070.00
751.88,763.20,-362.42,4831.00
751.82,763.14,-363.33,3850.00
751.77,763.09,-364.24,4551.00
751.72,763.04,-365.15,8747.00
751.67,762.98,-366.06,5945.00
751.62,762.93,-366.97,4213.00
751.56,762.88,-367.88,7627.00
751.51,762.82,-368.79,6365.00
751.46,762.77,-369.71,3478.00
751.41,762.72,-370.62,4323.00
751.35,762.66,-371.53,3238.00
751.30,762.61,-372.44,4369.00
751.25,762.56,-373.35,3607.00
751.20,762.51,-374.27,5614.00
751.15,762.45,-375.18,5563.00
751.09,762.40,-376.09,3506.00
751.04,762.35,-377.00,5035.00
750.99,762.29,-377.92,6128.00
750.94,762.24,-378.83,4773.00
750.89,762.19,-379.74,5033.00
750.83,762.13,-380.66,5996.00
750.78,762.08,-381.57,4683.00
750.73,762.03,-382.48,3514.00
750.68,761.97,-383.40,3882.00
750.63,761.92,-384.31,3851.00
750.57,761.87,-385.22,4590.00
750.52,761.81,-386.14,6081.00
750.47,761.76,-387.05,5868.00
750.42,761.71,-387.97,5839.00
750.36,761.65,-388.88,4804.00
750.31,761.60,-389.79,4386.00
750.26,761.55,-390.71,6856.00
750.21,761.50,-391.62,4405.00
750.16,761.44,-392.54,3764.00
750.10,761.39,-393.45,4728.00
750.05,761.34,-394.37,6086.00
750.00,761.28,-395.28,3876.00
